Time,Fp1,Fp2,F3,F4,C3,C4,P3,P4,O1,O2,F7,F8,T7,T8,P7,P8,Fz,Cz,Pz,ref
-4000.0000,-87.1590,-45.9807,-34.6172,-27.0447,-76.9988,-19.1113,-23.2416,-14.3377,310.3984,-25.8190,13.9932,18.3767,78.5303,24.6078,-17.1592,43.7558,27.4410,-54.3960,-18.6076,-13.0448
-3992.1875,119.5955,125.2482,256.9474,144.4162,177.6968,108.7574,305.1592,167.0063,-1268.1582,44.5122,49.2002,-20.5345,77.3775,59.6123,-56.8315,5.0807,-81.2735,-94.1072,-23.2491,-52.6420
-3984.3750,-12.5420,28.5757,43.6076,-93.0389,-182.5203,-84.6161,-18.3557,-83.5754,583.4764,-21.0755,-89.5078,-11.3405,-60.7140,-42.2885,61.5986,-59.5026,140.1492,-49.6967,-13.7852,-8.1401
-3976.5625,191.1326,197.7095,150.0636,112.3085,-4.9345,8.9229,86.9216,95.6443,-556.0718,121.1411,90.5998,20.6548,82.9817,-83.3947,-91.1843,-27.2826,-182.6468,-55.4871,-91.5195,-49.8468
-3968.7500,164.1003,171.1193,196.7967,120.9237,77.9324,33.8587,97.4770,-3.8760,-687.5257,-52.4027,-9.0340,31.8941,-15.0973,-146.2557,-117.7297,-88.8205,108.8111,128.9834,22.9988,-76.3114
-3960.9375,-81.9313,31.5272,15.5080,-54.4864,-67.2263,-82.6910,-120.9968,-112.4319,606.1985,-49.9597,-5.6700,-1.8637,24.7911,-70.1204,-78.2747,-122.3730,40.2964,94.4624,59.5248,-110.7789
-3953.1250,140.1831,149.0707,250.3480,204.2303,276.7480,112.0447,186.6630,158.1235,-1177.1495,-0.4064,45.8155,-24.5224,39.7697,-18.8848,-138.7424,-71.8326,-158.1428,36.0347,36.1400,-134.1568
-3945.3125,-1.1313,-27.8212,25.7436,-42.5091,-21.7329,-25.1477,-37.1322,-65.7948,443.0913,-114.3199,-141.1588,-27.6244,-109.7438,-22.1068,-31.6635,-147.7611,124.0028,106.1766,106.3060,-63.9874
-3937.5000,105.8139,9.5471,66.3822,64.9982,91.0301,9.1215,39.3010,47.5278,-211.3534,36.0261,47.1254,13.5218,41.9681,-18.0834,-102.3351,-106.4444,-119.6119,1.5723,1.7108,-97.5715
-3929.6875,249.0061,117.1442,216.2522,137.7314,167.0297,52.3132,115.9589,13.0604,-864.7960,-71.4226,-23.3827,53.8653,-64.1461,-87.8730,-99.8073,-102.9215,94.9734,75.1788,4.3114,-94.9595
-3921.8750,21.9985,-38.4658,-21.0922,-17.7604,-145.1915,-82.5704,-158.6163,-113.6391,741.7307,-14.0848,-75.1019,38.0067,-79.5025,-140.8674,-42.4677,-81.5994,116.3928,59.5965,24.7159,-74.5508
-3914.0625,210.3822,114.3044,176.9456,241.1245,125.9713,96.3044,150.1723,158.0182,-1005.5339,72.6131,49.5565,-58.5040,8.4753,-163.5088,-139.7892,-30.9243,-116.8668,36.3567,72.4445,-97.7991
-3906.2500,103.2081,-27.4947,27.3953,-41.5861,-61.4595,-48.5085,0.3426,-102.9457,284.5687,-114.3111,-99.3856,-96.6062,-103.1838,-165.7557,-31.7152,-179.8589,164.2997,176.5350,211.5581,-63.6358
-3898.4375,75.9897,16.6653,74.7803,37.6510,21.0395,-58.1664,-26.5786,-55.9806,151.7128,5.7203,58.6336,-85.7534,55.0772,-155.0618,-95.6911,-205.8414,-107.5868,79.6744,79.6144,-90.5141
-3890.6250,214.0044,154.0508,219.3987,175.1202,238.7781,54.7739,190.7339,14.2041,-986.1625,-33.0411,19.8620,-14.6940,16.5091,-120.1718,-135.4771,-244.6239,-39.2870,147.0295,40.8717,-93.1977
-3882.8125,-16.8280,-40.4154,-21.8358,-54.2812,-76.3529,-96.2210,-123.8212,-153.4932,764.2503,-53.6658,-36.7754,-70.4793,-1.9598,-103.1408,-45.1086,-190.2735,84.1927,128.5529,57.2866,-76.7303
-3875.0000,153.7165,25.4950,196.2943,187.6852,250.8875,72.9412,203.9849,101.1681,-963.0876,90.0752,71.9538,-109.9116,105.9025,-105.7632,-122.3995,-82.5810,-201.0095,123.4276,17.0461,-116.9173
-3867.1875,82.6406,-81.2157,83.7912,-24.9854,137.4940,-10.6988,91.1510,-48.8289,-115.1536,-59.8469,-76.9712,-148.9924,-42.9296,-108.0446,-14.3435,-120.5522,80.1678,227.6704,87.1598,-82.7568
-3859.3750,-23.0303,-80.5180,-26.3246,-59.2675,100.4834,-37.6623,-18.3063,-48.4521,221.3210,-22.3688,-39.4956,-110.6782,68.5982,-33.9336,22.1110,-46.1319,-129.2388,193.3142,16.6721,-82.2009
-3851.5625,144.3552,87.2207,149.5961,108.4822,385.5170,94.7656,157.2664,52.9443,-1290.4272,-67.8837,-10.0086,-8.3701,61.0959,-4.8236,50.5553,-89.7056,-136.6602,255.9574,-26.8220,-90.6545
-3843.7500,-93.0910,-114.8839,-63.3447,-129.6354,97.6889,-78.9611,-203.0371,-233.5381,560.0745,-171.2627,-112.3857,73.0914,32.6914,2.4338,131.1648,-119.1330,49.1006,299.7636,-53.1625,-46.9578
-3835.9375,47.9420,-44.5175,86.1714,117.7120,246.3262,76.8601,18.1023,24.4353,-830.0383,50.8130,74.7074,76.0058,145.7145,79.1537,-13.7801,-43.1068,-266.7128,194.0131,-124.0647,-81.8149
-3828.1250,-1.2287,-92.3668,71.4658,-1.1732,120.7426,34.9044,4.0135,-63.8410,-472.5555,-37.3663,-13.4471,24.6709,21.4472,-9.3930,44.0225,-93.3368,38.2380,322.0298,-66.2195,-59.9242
-3820.3125,-138.3412,-194.1588,-71.2017,-67.0293,-59.8096,-37.1656,-176.0509,-60.0995,455.1279,76.5020,28.4455,-43.6145,99.1833,-40.9077,47.8833,-51.5244,-62.7477,255.1052,-98.3240,-55.9827
-3812.5000,111.7464,-14.7553,191.3088,147.2926,238.8291,125.5454,123.0682,165.8078,-1264.2491,118.5348,71.4979,-38.7535,105.0391,-36.2702,-57.1160,-46.5609,-128.6104,223.3249,-94.2774,-87.8971
-3804.6875,-41.5386,-167.7249,-79.5807,-110.7986,-69.9423,-23.8929,-112.2184,-69.7087,529.0322,-42.8500,-125.8685,21.7067,-18.5683,23.9610,38.4932,-133.0129,106.1623,246.1528,-1.6151,-65.2106
-3796.8750,48.8610,-77.0182,-21.8250,13.7685,134.9332,80.1877,93.1426,172.4238,-475.0328,51.4282,6.4188,6.8153,150.4333,119.8471,-50.2511,-73.8192,-225.4322,90.6193,-52.3097,-80.8773
-3789.0625,67.7659,-56.8177,33.4092,-36.1853,189.2893,62.6236,184.9772,79.0234,-673.8378,-3.8397,-47.8460,-10.6215,58.8300,64.1787,4.4458,-129.1858,6.4266,145.5449,2.4486,-26.0951
-3781.2500,-125.0749,-178.3635,-97.1284,-157.9036,-53.1281,-100.5094,-56.9726,-124.1518,670.7542,49.1389,43.1294,-30.8075,148.4251,-66.2476,-16.6003,-112.3123,60.5615,92.7337,-15.5360,26.9406
-3773.4375,130.6284,75.6266,244.8657,131.9108,287.9924,42.0714,137.6007,32.1982,-1190.3533,59.6290,201.6289,-19.4935,233.4946,-129.1788,-116.1595,-26.9378,0.1692,31.4194,-112.0327,0.4712
-3765.6250,-11.1264,-29.8603,59.3734,-45.7775,-9.3862,-94.4321,-158.3284,-227.9795,356.0365,-90.3914,15.6229,-95.6783,84.0087,-166.6213,64.7893,-66.0689,281.3070,135.6146,-43.0363,34.5059
-3757.8125,3.0501,-15.4278,38.7754,74.4354,80.1320,-26.1021,-70.3755,-66.2848,-138.6254,72.4933,142.5306,-115.9580,210.3861,-78.1672,43.6461,-49.3015,-54.6658,44.7005,-99.1542,13.4451
-3750.0000,86.7423,68.5048,88.6613,88.1266,203.1410,53.9191,127.0496,-16.1395,-819.0611,11.8227,9.8953,-101.7777,114.1738,-27.2616,19.9548,-109.0886,29.8051,163.2388,-15.8315,26.8360
-3742.1875,-80.1039,-98.0979,-195.0216,-183.7508,-82.4235,-97.2218,-120.1177,-116.5807,812.0904,-16.4135,-17.3051,-55.1360,86.3534,-17.8990,-8.2716,-62.4325,4.7580,102.2342,63.9441,35.6803
-3734.3750,180.5970,56.8348,40.8178,40.8999,226.5416,70.5394,188.2254,191.4984,-1007.4205,108.8684,109.0050,-75.9877,137.9968,-2.0341,-103.0149,27.7232,-261.8138,-25.2761,42.2214,14.0192
-3726.5625,98.6944,-59.8550,-48.9716,-181.0940,-47.1261,-63.7106,-12.0757,-45.0759,193.3460,-17.5017,-17.3448,-127.4957,11.9293,-54.8335,63.5852,11.2160,78.9941,33.5752,64.8611,107.7094
-3718.7500,54.0101,-33.3309,-58.5692,-119.8922,-95.6024,-46.1939,-133.2006,-19.4594,75.3967,118.3275,120.5120,-63.8126,111.0214,44.5619,16.3843,111.9009,-140.0001,-45.3754,-49.3000,133.6026
-3710.9375,139.7761,87.6394,104.2703,105.7451,66.3661,97.5380,-6.8961,31.5741,-1117.3966,60.5630,63.7822,99.2681,90.4797,61.3591,-40.4263,91.9849,-54.6089,39.0817,-70.0667,112.8939
-3703.1250,-76.8909,-93.8235,-159.3534,-76.0837,-161.1244,-60.9405,-308.0698,-194.8796,681.4722,-19.6684,-16.4078,165.9039,10.4351,54.6926,24.3227,48.6062,80.3698,32.1040,-77.2847,105.7374
-3695.3125,169.2381,46.4945,27.7941,169.8617,135.1646,74.4038,-48.4795,64.4147,-893.0220,129.8602,98.1652,133.2911,160.1105,21.7739,-46.1800,52.9764,-199.9274,-38.1352,-111.7658,35.3254
-3687.5000,106.3643,19.7911,-1.0858,1.7679,32.4307,-11.3056,-40.9120,-39.3459,-109.6836,27.3267,-77.3250,31.6267,-16.3201,-81.1956,-1.7293,-49.7151,89.7450,40.5834,35.7099,42.8629
-3679.6875,20.3421,-32.0536,-92.1372,-15.4922,-59.4699,-53.4724,-94.5147,-21.2700,464.6196,82.6454,16.0277,-60.1948,76.0497,-62.3132,-20.4186,-67.5657,-101.7251,-46.8451,-16.9548,61.2526
-3671.8750,222.9177,135.6927,154.3891,151.8323,113.2240,72.2006,114.4697,78.3883,-1050.7754,108.5350,79.9378,-69.4662,64.9307,-35.8835,5.4283,-40.8684,-144.6688,14.2779,-96.0642,87.1860
-3664.0625,21.8613,-99.1964,-55.7379,-153.5068,-208.7340,-102.2895,-207.2127,-206.6247,727.2526,-29.2392,-20.8222,-23.3880,-35.9041,9.8858,161.6347,-30.8389,77.7770,59.7671,-50.8107,132.4669
-3656.2500,193.4377,-33.4634,124.7474,16.7702,43.9298,1.8942,8.7077,8.9726,-596.1772,76.5963,160.0249,-62.7099,106.8226,7.2529,84.4354,76.7770,-207.1966,-49.1535,-125.9586,92.3420
-3648.4375,215.9137,-45.8488,147.1087,-101.0803,65.4754,-49.9252,-5.5010,-78.5673,-312.9271,-47.7178,35.7155,-113.1799,54.3476,-79.5301,106.0826,25.2310,61.6881,41.7865,-104.2519,114.0670
-3640.6250,27.5421,-128.0773,-14.3991,-183.7976,-58.8462,-124.2308,-277.5919,-130.9775,631.6075,46.1198,95.5467,-127.5004,112.9724,-57.1694,90.8896,84.8286,13.7404,-5.1188,-152.3924,135.9475
-3632.8125,155.6235,70.1370,192.5235,83.9231,220.2806,94.8497,-33.2572,112.0344,-1181.6965,106.3745,119.7953,-103.4182,135.9664,38.5926,-31.9173,145.8271,-67.8316,15.3719,-166.1422,122.2253
-3625.0000,-78.4690,-93.8252,-53.7514,-150.5557,-100.7877,-40.3262,-282.1364,-99.1787,522.8143,-30.5897,-16.1710,-130.5304,-1.2985,48.1470,86.0842,118.6179,224.4345,27.6764,-50.0905,168.3074
-3617.1875,32.4675,-51.7646,62.9717,-39.0235,52.1487,38.4334,-91.0302,127.6062,-385.6865,122.4502,100.8745,-159.6490,151.4011,92.7054,93.0863,126.4084,-120.3135,-108.0282,-80.0415,138.3895
-3609.3750,103.1620,-17.9670,99.4275,-39.7652,50.8284,46.7194,17.8082,52.1088,-604.7021,11.1902,26.6199,-123.0705,39.7538,54.9601,165.7887,51.8830,90.6386,-3.0352,-46.2842,137.1717
-3601.5625,-82.3835,-61.4116,-130.3840,-120.7749,-178.7640,-93.9572,-286.6327,-141.6591,786.1632,0.6692,54.1000,-22.7445,64.8027,-28.0345,155.2579,42.0959,45.3641,20.7096,-91.7673,126.7084
-3593.7500,171.4149,121.4857,136.1309,132.5468,159.9810,79.8235,-20.7550,49.9049,-1040.8802,8.4734,173.8931,22.8842,36.1189,17.2772,16.0180,88.6101,-121.6419,-7.2618,-119.9587,98.5432
-3585.9375,7.8429,28.0107,-73.7503,-101.5289,-50.6708,-37.5497,-157.2775,-159.9448,442.6452,-128.1352,1.2724,70.1161,-358.0198,27.1882,99.3815,24.7109,136.9844,74.3772,31.4578,144.9847
-3578.1250,-15.4089,110.8506,-60.3407,14.6968,107.9752,28.6666,-34.5127,-37.5091,16.5129,-5.4501,124.9561,120.6579,-566.8983,77.4013,38.0474,75.1048,-61.0914,-18.6934,77.1698,120.7280
-3570.3125,115.2452,241.5841,111.9555,144.8139,243.5192,101.9486,137.1352,-13.2154,-801.0073,-89.9220,77.4934,147.0552,-762.9631,-7.5453,63.5571,-9.6588,138.6834,39.0863,101.7302,109.3185
-3562.5000,-76.3961,85.0205,-52.0614,-12.3820,-68.2542,-39.8119,-138.5371,-215.2476,839.2957,-71.7042,22.7154,129.1548,-892.3782,11.1909,118.7772,-62.7253,264.1822,22.5708,84.0012,127.6148
-3554.6875,114.0444,240.5306,182.9880,248.4984,167.0540,150.7517,96.8656,92.7974,-908.5157,89.5828,112.9978,108.3015,-804.7711,63.9859,23.0407,62.2619,-38.3061,-32.9026,-7.6795,105.9618
-3546.8750,-6.1400,83.4148,17.3972,20.7306,-36.2742,46.9898,-32.3704,-73.8056,250.9399,-39.7826,-52.3816,88.8002,-972.8669,8.1414,150.6605,79.5886,227.5679,89.9819,45.9970,159.6646
-3539.0625,-96.3776,29.2602,-40.2629,35.9090,-58.6678,29.5527,19.3104,-59.4620,378.4290,83.8174,36.1871,31.2495,-885.0511,59.2520,165.2394,168.8649,-37.6160,-0.1885,-9.3784,174.3219
-3531.2500,34.9746,161.6880,59.6538,202.6706,151.5310,153.8090,192.5735,40.4674,-804.7826,73.9868,-8.6887,22.2488,-895.7153,49.9101,118.3653,159.6908,58.7376,60.1817,16.8017,164.5295
-3523.4375,-167.8150,27.9627,-152.5895,-36.7345,-209.4299,-7.5662,-131.3290,-173.7731,1005.9640,7.9888,-112.7304,65.0928,-1001.5760,20.4062,124.3522,129.3490,241.9833,101.4021,126.8507,170.5936
-3515.6250,48.2260,140.0647,38.9859,179.6822,92.4397,142.2809,170.5815,127.8033,-564.5995,198.7945,-29.9631,74.7288,-883.6574,28.7076,-13.8638,174.8027,-66.9944,1.4049,132.6942,105.4581
-3507.8125,9.7015,30.5941,-76.0154,-0.4862,-23.2633,59.3259,163.9177,10.7820,130.1032,155.9965,-181.8098,105.7612,-964.3893,-13.5890,16.3258,132.6486,139.4458,31.8053,267.9515,135.7275
-3500.0000,-148.9212,-56.9778,-242.1430,-53.7791,-117.0844,19.7760,33.1421,63.6449,737.8348,283.1001,-127.7694,86.6873,-838.2614,3.0180,32.4342,186.3960,-20.2167,-21.9102,213.1245,115.9071
-3492.1875,87.0967,108.0806,5.3526,145.5541,130.7377,177.0234,319.0124,238.1382,-814.0664,199.8198,-99.1196,115.2100,-774.5585,31.2240,-49.8589,104.7479,-65.3095,35.9643,166.9010,69.6924
-3484.3750,-114.6749,11.3391,-168.9641,-90.9233,-155.2516,-14.1890,32.0706,-48.1883,999.3023,60.7327,-201.2879,86.9329,-841.7028,2.6173,31.0622,2.2889,154.8307,80.0473,174.8853,77.6911
-3476.5625,-6.5311,120.5143,18.6214,86.5165,105.6698,82.2997,183.0233,102.3994,-282.4866,137.5686,-13.5481,54.5513,-581.9673,80.9125,-2.1266,43.7338,-122.1531,-23.9773,71.7648,44.5947
-3468.7500,2.1457,59.2163,63.7319,-11.5189,149.1285,38.6401,153.4975,-1.4946,-161.9585,-39.0918,-78.3202,62.6686,-575.7666,14.7056,79.1858,14.6746,96.3720,18.5009,149.1468,52.0030
-3460.9375,-128.1309,-73.0299,-110.1314,-142.5227,-62.3780,-75.4932,15.9945,-29.3534,878.7537,44.2953,-32.0565,72.8324,-456.5597,-12.4517,124.5704,61.6551,-36.0387,-112.9776,156.5865,24.4677
-3453.1250,121.1803,72.3024,78.5754,71.0546,200.7061,85.7816,352.0741,233.3677,-880.2045,122.2513,47.7679,4.5445,-342.8207,-44.0497,56.5024,140.1891,-206.9320,-144.9227,195.5745,-7.5170
-3445.3125,-147.5016,-91.3642,-130.7297,-233.3711,-84.2167,-89.9426,140.1506,21.0870,859.8638,21.2018,-89.4292,-59.7502,-409.1226,-71.6548,212.4462,39.7217,86.2076,-134.8669,276.5785,38.5055
-3437.5000,-118.6351,-26.4800,-63.4850,-65.2419,57.4153,28.3802,281.7747,272.3672,-63.5164,199.7210,15.9258,-101.5051,-268.8942,-2.7085,169.9448,70.8036,-201.1172,-212.2785,199.1381,-3.9177
-3429.6875,-83.5315,8.6324,-27.0068,-29.8835,56.2896,92.9176,391.6262,270.8730,-503.9135,124.4420,-131.5225,-65.0678,-344.4897,-3.5622,168.6469,70.0760,-25.2397,-73.4907,232.8983,-5.1382
-3421.8750,-266.8335,-139.6546,-330.9431,-179.9414,-175.2571,-18.9172,86.0376,148.9603,921.4322,149.7519,-141.3869,-39.0320,-320.5209,22.1829,193.9590,59.9374,-69.7385,-48.1007,188.2657,20.2507
-3414.0625,-21.9071,-0.7141,-74.6571,64.2342,191.4349,143.3942,305.6652,295.2704,-953.2130,149.2760,41.9656,-38.7918,-139.3611,132.1370,46.4602,59.0018,-246.0714,-85.5217,150.8230,-17.1603
-3406.2500,-92.3661,-106.1636,-222.7665,-181.9846,-32.2595,3.7146,45.8874,35.1741,442.7030,-74.6189,-71.0945,-3.9493,-216.6345,166.6901,80.5711,-16.3486,70.2262,-16.3300,184.9870,17.0341
-3398.4375,-15.0786,-28.8635,-178.1314,-106.4538,11.7955,8.2742,52.8362,151.8232,83.4189,116.2380,47.6002,3.6393,-65.1687,136.9941,13.4398,28.0458,-239.7350,-116.3961,118.8980,-13.0181
-3390.6250,44.4425,65.6624,-43.2619,-11.6892,110.0976,91.7707,188.0207,213.6960,-771.9052,141.3016,-74.5072,-7.5788,-115.5151,88.5000,38.5058,89.6360,-110.5041,-22.2693,143.0142,-24.8697
-3382.8125,-220.4051,-94.1732,-247.7622,-207.2922,-204.9691,-62.8108,-92.1589,7.2006,936.5502,119.0069,-167.9899,7.8504,-138.2454,66.6544,126.2427,67.8648,11.4027,-7.4878,157.7938,-10.0625
-3375.0000,-87.4920,110.7520,-33.5040,65.8788,118.7433,99.9470,196.4337,257.4848,-797.3910,222.4785,-64.7114,75.0245,0.7743,60.5704,9.7329,98.8451,-276.9805,-50.9730,43.3267,-53.5068
-3367.1875,-166.4199,64.8326,-120.0883,-85.7956,-41.3779,-6.9202,36.1939,23.9286,219.7351,26.0958,-186.3000,99.3460,-88.0830,-25.3604,33.3869,12.9684,28.8008,112.6890,67.0270,-29.7957
-3359.3750,-202.3681,63.9045,-156.6950,18.5175,-115.5164,-7.5086,-75.0619,22.3764,404.9723,98.7185,-39.8966,99.6707,20.0434,47.7096,-3.9513,49.0863,-183.4315,40.3387,-75.2646,-67.0776
-3351.5625,38.4518,271.7491,61.4672,260.6109,65.1306,125.7880,105.4735,92.6119,-921.2754,21.1070,-42.7447,96.7471,14.9116,81.5413,-81.5444,8.9595,-81.9405,70.7321,-151.7993,-107.6077
-3343.7500,-7.0928,190.2340,-135.7428,73.3382,-205.5856,-86.1458,-202.3481,-251.5169,905.2319,-139.8679,-129.9621,83.4694,-36.5946,31.0208,-21.4713,-114.5258,223.2275,22.7710,-163.6678,-84.4800
-3335.9375,364.1218,456.4718,143.8044,267.8312,73.4683,-29.6200,39.5950,-120.8765,-616.5956,-155.0764,76.5850,105.9324,166.6598,-20.7452,-110.6407,-129.2589,32.1117,-170.4684,-250.7862,-136.5997
-3328.1250,667.7011,725.0681,129.7154,147.6851,-88.1089,-155.3801,-122.0824,-318.8714,-115.1859,-389.9352,-48.5316,91.7423,40.2480,-145.1577,-88.4499,-217.6487,370.3552,-114.3688,-195.5406,-151.3641
-3320.3125,927.7043,914.1008,-0.9475,125.9710,-257.2628,-263.3907,-327.3255,-341.4235,452.8202,-338.3430,4.7891,106.9967,90.2766,-166.1232,-146.7897,-201.5938,172.0517,-278.8289,-253.8371,-209.6717
-3312.5000,1428.4750,1344.9066,193.1619,274.0445,-25.6278,-170.1025,-96.7719,-148.1862,-1227.6532,-328.9839,14.8666,117.9955,99.0589,-193.3378,-284.3829,-227.7901,74.4674,-307.5527,-281.3831,-273.2263
-3304.6875,1431.9294,1418.3979,-96.0369,30.8078,-353.3000,-394.1752,-387.5251,-438.2589,542.6444,-470.9388,-164.3836,158.6851,-9.4805,-261.8546,-207.2637,-334.2910,253.6196,-269.5711,-279.2132,-306.0737
-3296.8750,1706.7744,1622.2820,47.1648,197.9838,-99.5594,-332.8486,-243.8767,-332.9134,-636.6895,-402.4830,-20.2294,192.7666,132.3883,-155.9611,-321.7503,-338.3912,-70.8465,-349.2016,-428.6451,-420.5202
-3289.0625,1771.1333,1511.6749,114.8960,121.6817,-32.2807,-347.4781,-287.6972,-450.0515,-605.7003,-556.5304,-100.5845,186.3414,49.7529,-162.5709,-254.7334,-417.9968,204.1966,-215.3313,-400.5735,-427.4643
-3281.2500,1612.2136,1422.7914,-13.6452,-2.8906,-162.2734,-463.4957,-453.8000,-579.4552,516.1957,-539.8362,-82.2004,130.6624,102.8595,-144.4273,-310.9523,-436.8589,221.0094,-269.7144,-384.7454,-446.6491
-3273.4375,1554.8568,1330.4692,294.3859,291.1206,182.3182,-198.5309,-35.3330,-272.2764,-1309.5669,-489.5751,4.7407,107.5353,150.5315,-93.7205,-444.6322,-387.1596,128.3411,-258.5645,-302.3705,-470.2806
-3265.6250,1180.3368,1130.9866,83.2589,91.9715,-102.2397,-301.9418,-284.0262,-410.2524,356.5458,-553.4733,-168.4875,80.2571,11.0438,-158.1611,-398.4568,-376.6173,421.5561,-212.5613,-186.1326,-424.0499
-3257.8125,996.7955,913.4890,148.1201,224.8234,-0.7932,-169.9859,-145.7334,-126.2251,-351.3179,-269.3571,6.2847,-2.0257,184.5676,-130.5908,-445.2836,-239.0698,62.7564,-291.5696,-193.8927,-396.8103
-3250.0000,846.3659,692.1022,171.1128,179.7912,95.7931,-90.0491,-50.3075,-67.0747,-769.2823,-283.1415,-7.8460,-16.2126,168.2012,-106.9168,-312.0121,-216.4243,194.0531,-161.4852,-134.5393,-337.4652
-3242.1875,459.0542,339.8362,-16.7697,1.8855,-167.4952,-178.0079,-385.7550,-182.7844,771.0624,-288.7827,24.1566,-57.2559,271.9825,-38.0913,-170.5750,-184.6366,192.5165,-129.2564,-207.0131,-268.9628
-3234.3750,463.7913,345.6147,280.4100,289.0529,167.2985,26.4300,-89.1229,40.5992,-1064.7017,-139.3506,138.2186,-17.2567,382.8386,1.7887,-204.0929,-107.7962,-13.0106,-159.9915,-308.4338,-229.4081
-3226.5625,144.9625,96.8262,161.0408,109.6678,-100.4485,-81.9217,-209.0336,-262.5618,323.9702,-222.4717,-18.2905,9.1890,224.1446,-8.8841,-104.1460,-117.5182,335.9351,-93.2715,-206.3934,-92.3967
-3218.7500,-58.8475,-35.9327,166.7038,187.3234,-58.1588,-33.5663,-130.9095,-220.6703,71.7813,-144.5413,134.2495,51.6861,411.5183,70.5027,-99.1410,-1.1936,96.9172,-191.5138,-234.3021,-50.3315
-3210.9375,-63.6548,-111.6858,306.3857,252.0116,118.1695,93.6738,46.2553,-82.7476,-927.6262,-151.6039,89.7905,81.1784,401.9131,99.8932,-33.1378,64.1331,162.8833,-162.7593,-169.2087,-21.2647
-3203.1250,-438.7031,-451.6656,19.8407,-53.5181,-130.7249,-18.6306,-203.8040,-148.0390,845.9137,-143.8737,24.1062,52.4671,371.1079,181.0845,84.6801,109.2514,173.6754,-188.1991,-88.3042,59.6125
-3195.3125,-341.4165,-425.2994,192.6552,148.3300,187.7523,171.9453,78.4991,170.0499,-783.3123,64.2242,123.7796,41.1040,431.6796,243.6364,35.8414,134.7250,-151.2146,-233.2999,-63.0559,84.8404
-3187.5000,-535.6424,-513.4457,-13.0211,-45.3132,-18.2571,110.0954,-91.6818,72.6534,222.8955,40.8161,-46.0629,19.2386,295.7596,220.6867,122.5109,73.6917,111.4072,-76.8971,-12.2959,171.5723
-3179.6875,-651.8575,-593.5699,-172.6735,-20.9275,-104.2307,108.3087,-177.8239,170.3100,504.2905,248.4678,52.1324,-67.5868,427.9070,244.7816,146.2505,171.7096,-179.9351,-159.4590,-58.4775,195.3584
-3171.8750,-536.7277,-549.3452,-16.9535,58.8291,160.1877,216.0410,123.4332,325.3642,-847.1772,292.4850,60.6831,-95.0668,434.4329,142.2344,117.3427,180.0767,-170.9669,-80.6839,55.7008,203.4926
-3164.0625,-761.0845,-809.6029,-252.6973,-201.8927,-111.8612,40.4616,-148.7696,15.9612,1049.0294,129.0360,-29.2390,-73.9983,343.5183,126.2404,137.9982,163.9804,26.5743,9.6464,145.4457,224.1817
-3156.2500,-605.3527,-688.7719,-14.3317,58.4970,162.2070,188.0780,88.1291,216.6779,-440.7283,220.6973,97.9509,-19.8316,469.7455,181.3572,-27.2565,218.9860,-239.8215,-81.9368,54.2810,167.9716
-3148.4375,-668.3235,-680.6432,-45.6511,-3.7959,94.5979,136.7539,58.3387,74.7081,43.6894,42.6553,-42.5685,59.6391,289.2906,76.7787,87.7877,150.2876,14.0878,-40.2128,166.4195,210.0679
-3140.6250,-845.5415,-787.7501,-196.2014,-111.3044,-55.2420,44.1634,17.3134,34.5336,922.0684,147.4188,-9.3002,55.9071,357.6556,74.0022,156.6437,146.3902,-163.2003,-148.6913,199.3659,242.9716
-3132.8125,-643.6117,-620.7161,15.4151,20.3596,228.1119,192.3257,337.4858,244.5481,-668.6002,211.3469,-18.8734,-27.6883,309.2127,100.3748,110.6509,173.6451,-242.3726,-88.0324,225.4673,233.0262
-3125.0000,-827.5618,-804.5656,-251.8339,-304.8537,-75.3920,37.4944,-3.1837,123.7039,1122.9741,200.4111,-139.3203,-111.1485,186.9386,53.8914,209.8275,127.0393,-39.3670,42.7858,286.7339,259.2381
-3117.1875,-742.0412,-683.9404,-123.5896,-149.5602,52.6052,175.6949,123.6486,435.3759,-35.9523,401.9902,-11.2622,-167.1181,313.2017,106.9111,80.5057,180.9363,-341.8845,-13.9004,300.4982,202.9472
-3109.3750,-688.5701,-665.3607,-103.3697,-201.2902,-1.4222,196.1596,180.4533,418.0267,-126.0954,310.5237,-138.2595,-147.1384,147.4386,89.8771,63.1286,163.7791,-76.4560,108.3606,354.2187,185.6044
-3101.5625,-877.4328,-783.1035,-227.4799,-249.3507,-198.7841,108.6833,-90.0678,293.3659,1036.6357,296.7522,-151.5752,-123.4608,169.3992,40.5455,49.4642,187.3205,-19.3249,94.3106,340.6517,171.9698
-3093.7500,-681.1878,-728.7346,88.5190,50.7034,190.9785,288.3499,225.5446,499.8414,-779.7009,356.1005,-92.7889,-174.6920,189.5012,-46.6746,-2.0981,172.9733,-70.1427,113.3359,359.1910,120.4407
-3085.9375,-950.5003,-926.9228,-45.0538,-217.8152,-53.8236,138.3337,53.6058,290.7645,813.4612,219.8874,-227.5816,-199.4781,53.0646,-71.4372,156.8074,74.0721,258.5109,159.8164,406.1903,132.3711
-3078.1250,-765.8228,-777.1171,39.3564,-67.3377,30.3567,201.3420,102.6514,449.6938,89.6875,341.6798,-32.3828,-188.2679,210.6650,49.8052,57.7164,86.1683,-83.8580,26.2848,274.1856,70.3005
-3070.3125,-442.1261,-558.2959,157.7880,-26.8347,75.5655,231.8542,146.7315,383.6487,-564.2706,165.4737,-61.1847,-180.0616,143.3031,95.0407,-8.3830,20.2578,98.7609,137.7482,245.1801,41.2247
-3062.5000,-517.8382,-634.8873,-32.2043,-172.7570,-187.6585,56.1502,-152.6225,119.1794,974.5458,85.8544,-67.3979,-149.2540,135.5656,88.8701,22.1216,-23.0661,162.9914,95.8123,203.7712,34.7525
-3054.6875,-238.7424,-320.6783,187.6125,105.1453,103.9370,201.2763,101.8298,301.5425,-865.9814,157.0476,41.2074,-78.6467,205.6831,50.5073,-90.5831,12.4103,-51.0206,126.6643,59.1533,-3.9217
-3046.8750,-370.4785,-346.2980,-26.3690,-26.7566,-108.2631,61.2659,-110.5150,14.1112,390.6794,16.4342,-98.0031,2.1568,101.0297,-89.6512,-47.0813,-17.9201,240.1847,240.7242,102.7492,39.6101
-3039.0625,-387.0430,-362.7430,-6.1764,62.5254,-53.2825,80.7468,-91.6845,106.8813,189.6504,73.0256,67.9780,22.1643,266.6179,-70.5978,-64.3771,38.9500,-58.4301,81.9733,85.5405,22.3517
-3031.2500,-248.3395,-364.9093,212.3375,130.1329,165.0334,148.0869,199.4722,140.9844,-806.2819,-4.0735,65.2633,-54.5274,262.5609,-73.2279,-30.3741,-0.8668,9.2356,78.5278,152.6236,19.4037
-3023.4375,-427.0440,-577.4956,-48.5201,-187.6400,-169.0236,-44.4932,11.2546,-47.2762,1029.6012,-45.5285,-12.8204,-167.5838,221.1864,-40.2030,113.3011,31.9681,78.5762,4.7418,221.3672,52.1202
-3015.6250,-239.9510,-462.2854,110.4847,-2.5578,135.7918,90.1443,390.9159,185.3412,-614.7357,76.8945,145.9608,-192.8100,341.7253,8.6718,13.8323,116.6693,-227.2764,-91.2039,159.9664,26.6964
-3007.8125,-370.0955,-451.3216,-27.7055,-166.6812,-38.5778,-4.3527,289.4066,-27.2288,313.6804,-61.8771,-28.4734,-110.2481,202.1017,17.3391,133.1734,15.1720,28.6761,23.6637,170.3792,72.0865
-3000.0000,-517.3217,-422.4108,-106.9208,-137.8248,-117.9740,-11.0412,135.8815,40.2033,711.2504,41.3541,75.0818,-43.6892,267.5175,48.0153,126.5297,8.6772,-187.3802,-18.4648,58.7991,65.4880
-2992.1875,-310.0842,-214.0226,109.3834,33.5578,98.1669,127.7480,278.8969,220.1705,-726.8763,37.1019,71.1405,-47.6311,262.4872,7.2027,122.3916,4.6873,-190.9662,47.9088,54.7166,61.3951
-2984.3750,-454.2171,-428.9947,-78.6402,-250.3861,-200.0140,-70.1152,-56.3905,-6.1708,1070.8450,-5.4577,-7.1255,-125.8826,220.1912,-69.9115,226.9778,-0.6064,51.1658,42.9958,86.3534,93.0150
-2976.5625,-284.5589,-399.1656,100.1786,-79.4799,88.6651,67.7158,122.1900,247.3696,-368.6029,136.8538,171.4661,-167.2922,324.8087,-39.1679,148.4126,68.9593,-199.8966,-34.0746,114.8497,51.4911
-2968.7500,-316.1335,-430.5666,68.8061,-146.7693,57.1670,81.9117,163.5936,178.7345,-70.3594,-42.0318,-44.1489,-161.9053,182.2718,3.3801,116.6505,0.3276,84.8341,109.6598,224.1599,19.7745
-2960.9375,-482.0724,-421.3220,-102.8986,-171.3972,-77.6612,31.2232,65.6673,154.7988,752.7661,7.7949,-31.0727,-113.8238,156.4828,89.6306,55.6090,13.3925,-81.7479,48.0937,163.1823,-41.2293
-2953.1250,-223.4846,-161.5520,95.9617,51.5347,231.0974,149.2647,411.3281,279.4483,-961.7396,21.1933,20.5653,-99.1968,170.3092,67.4384,-2.8842,-8.9831,-208.8257,25.0710,105.7641,-63.6768
-2945.3125,-377.2978,-316.1807,-176.5381,-241.9164,-115.5095,-65.0917,174.6392,5.7424,897.5046,-68.7696,-70.1638,-78.9301,79.8184,-22.1024,164.2844,-62.7166,24.7655,46.7161,92.0146,-6.4660
-2937.5000,-239.6991,-248.4027,-105.5917,-69.9229,66.3280,35.0082,357.3956,188.4988,-60.7629,39.7282,75.5582,-43.2251,224.8327,49.8148,88.9060,-26.9899,-294.2279,-27.1903,-16.2861,-44.8020
-2929.6875,-180.2650,-188.7988,-80.7789,-80.0651,91.0418,41.1150,382.0210,102.1300,-182.3277,-45.9200,-46.8755,-18.6771,138.7418,38.5869,113.3773,-76.4135,-94.3757,101.7678,-26.7332,-20.2802
-2921.8750,-361.9393,-264.2943,-270.0490,-190.2871,-99.3256,-100.6339,80.5621,-52.3020,1171.2493,-16.6210,-17.3757,-26.1891,167.6430,-5.6891,179.8069,-46.8943,-134.5617,25.6958,-68.2261,9.2004
-2914.0625,-143.8362,-12.0071,32.4971,133.3118,204.1370,58.4093,272.9260,141.1023,-622.5349,29.4977,101.9380,-16.9079,249.4131,-70.1562,78.0287,-0.5715,-231.9933,-37.5718,-164.9196,-18.5225
-2906.2500,-296.4746,-128.4563,-126.6604,-53.8027,-103.1100,-78.4618,2.5924,-165.1967,946.0317,-131.0955,-94.4660,-30.3267,125.5206,-46.3269,101.5649,-50.9536,107.8918,55.4723,-107.3033,5.0579
-2898.4375,-232.8114,-100.5988,-59.4826,80.4166,1.9800,-5.3811,70.6007,-61.1446,315.0445,-26.3303,47.4865,-35.3983,230.0360,95.8497,-13.5373,-18.9817,-179.8998,-57.1392,-114.3374,-37.0075
-2890.6250,-91.9586,-64.5466,88.9127,46.8536,113.3009,23.8668,292.8483,-22.8672,-344.9099,-99.3556,-25.3611,-71.2757,156.8026,24.2202,-12.4426,-91.8129,-2.5104,-21.5440,27.8290,-35.8678
-2882.8125,-292.5542,-193.9343,-85.1268,-188.1413,-170.8076,-134.9931,44.6675,-124.0131,1281.9282,-53.7925,-53.6298,-98.5565,129.2113,-40.8092,70.2668,-119.0485,7.4960,-47.3355,38.5982,9.8832
-2875.0000,-51.3100,11.5152,167.6889,53.7310,117.9526,29.2425,297.3524,91.7154,-598.5026,52.6376,125.9630,-102.9853,234.5330,-7.9833,-45.1809,-50.4256,-241.6927,-52.2770,-36.7938,5.4855
-2867.1875,-157.2895,-94.2618,55.3032,-122.6083,-103.4908,-75.4060,37.8462,-129.7577,501.8600,-97.1410,13.3453,-68.6149,121.6957,-47.3588,100.1809,-125.0083,73.9298,87.5977,-2.3813,39.8938
-2859.3750,-161.2159,-62.9850,53.9915,-20.8679,-105.8549,-54.9925,-37.5795,-59.1380,427.4559,11.1856,158.8352,-71.1501,157.0211,-11.6333,61.6508,-54.4903,-175.3671,13.5730,-75.8729,1.4072
-2851.5625,82.3037,75.7308,162.1559,83.3409,76.2589,65.4692,144.4737,49.9611,-714.6927,-28.0263,83.7891,-73.2429,43.8618,-13.4506,-14.4345,-56.5118,-106.2467,151.9973,-42.9169,-0.6264
-2843.7500,-104.5278,-74.8892,-180.0068,-137.7865,-192.9611,-90.4958,-123.7980,-182.2525,1038.0286,-113.5416,-75.5810,-84.6424,-41.5589,-62.5681,47.1987,-31.8295,58.5826,246.1333,17.7451,24.0554
-2835.9375,-22.7423,7.1268,-17.5321,85.7395,227.4732,79.2415,185.5897,127.2173,-637.6609,48.6281,13.7091,-142.3994,84.7316,-83.0362,-47.5232,21.5179,-244.9931,222.9229,30.0585,-33.6054
-2828.1250,-230.2730,-131.1803,-199.3680,-52.0404,154.6100,30.5660,112.6966,18.4031,172.2968,50.5125,-168.3228,-140.4613,-61.2414,-117.8029,27.4597,-14.4366,3.1258,366.4333,103.0902,4.4357
-2820.3125,-295.4990,-89.1898,-376.8915,-45.5059,14.0722,23.3334,-100.8619,61.9359,620.7941,166.7464,-89.0152,-25.1859,-17.8167,-1.2179,-40.1905,28.9533,-200.4177,301.2930,-31.5171,10.8289
-2812.5000,25.2830,195.7899,-113.3901,171.0306,204.5726,153.7324,15.6273,141.4935,-991.8826,98.9846,-46.6939,128.0776,-12.3282,5.3617,-107.8424,-75.6576,-124.9991,376.1454,-132.1159,-19.7750
-2804.6875,-57.4755,148.2209,-271.4075,-15.9728,-137.4480,-38.5821,-399.3872,-163.4684,763.0797,-59.2898,-130.8909,190.8319,-96.2963,-42.5654,-81.9857,-123.7783,179.9363,364.5197,-177.1958,-30.8655
-2796.8750,72.5213,278.4179,14.3679,254.8202,148.3373,92.6682,-260.6017,48.3851,-643.1733,42.2505,43.7250,182.3810,42.6017,22.3164,-164.3279,-21.0894,-77.3711,142.7010,-293.4756,-76.1541
-2789.0625,18.0021,189.1019,27.6578,131.1118,124.6389,54.3513,-283.2904,-48.2480,-372.0332,-17.7075,-53.1708,121.4311,-16.9590,36.6976,-77.1667,29.1040,150.8177,123.3957,-241.2458,11.0578
-2781.2500,-132.7193,37.5867,-132.2337,-19.7809,-71.2433,-45.0754,-481.1531,-97.0440,644.1539,79.1908,6.7723,71.3253,79.3755,59.9289,-17.1398,126.1446,34.8461,6.9546,-216.1665,71.1245
-2773.4375,169.3536,234.8535,184.6875,178.1455,171.7004,80.6805,-163.1842,72.9986,-1098.0249,102.9088,141.5331,95.0112,103.5721,9.9694,-102.3267,148.9920,-47.3754,-41.6814,-229.2978,57.9977
-2765.6250,91.2388,122.9314,29.4374,-74.1063,-129.5259,-122.3952,-428.3753,-265.1119,622.7484,-52.5338,59.1276,123.5397,22.6577,1.8587,-37.6534,30.6854,191.2637,-13.4461,-200.5698,86.7361
-2757.8125,216.5418,177.4294,198.6209,87.0758,38.6792,-42.3392,-259.1253,-169.7626,-347.9779,5.4959,228.1769,108.5162,192.2449,98.2057,-88.5145,52.8419,-104.6913,-97.7678,-286.3928,71.9335
-2750.0000,251.2466,177.3204,198.2159,51.6569,74.2969,-22.1766,-186.4448,-206.9914,-606.4440,-68.0553,116.6159,106.8912,117.2722,59.9495,-16.9707,14.4043,70.7356,6.3187,-144.8090,107.5367
-2742.1875,-52.4903,48.7679,-82.6244,-110.1964,-168.5273,-129.7750,-394.1918,-230.6411,766.9037,16.9935,55.6409,82.8612,94.9350,-35.7179,106.1817,64.5654,14.7671,-15.9824,-25.6140,120.7497
-2734.3750,107.7149,174.1518,50.4969,120.9140,111.6226,50.1688,33.0378,86.6849,-1010.9372,188.0160,153.6293,69.7765,118.6102,-49.4347,19.2699,125.6829,-247.3028,-66.3246,28.5307,70.9151
-2726.5625,-90.1084,11.5050,-191.3849,-110.9980,-204.2333,-73.2169,-61.7358,-118.9936,511.2542,55.0323,-16.3989,46.6881,-13.6831,-35.1462,107.3716,28.7886,12.6402,17.3619,148.6836,85.0878
-2718.7500,-49.7729,17.0260,-145.0831,0.2693,-120.9048,-16.7473,130.6660,0.5253,79.7388,65.2561,139.7818,19.8021,107.2760,11.3499,-30.3185,39.0962,-226.2428,-46.7430,85.0280,21.4621
-2710.9375,16.4660,49.4407,35.1405,68.4523,59.3542,52.1153,348.9928,34.9599,-622.0562,-48.6130,63.8710,16.8142,31.1861,-28.2586,-33.1088,36.3127,-88.2488,21.0676,47.2630,18.7374
-2703.1250,-204.3860,-102.2304,-161.7109,-187.4512,-210.4689,-119.7905,78.2395,-161.6870,1020.2908,-97.5411,12.8990,2.7740,19.0807,-40.9225,101.0657,22.4763,-28.2910,9.8475,36.4456,78.9710
-2695.3125,53.7057,16.0359,111.3863,1.6074,135.6689,23.1074,351.4532,111.6471,-802.5172,64.5075,175.8897,-54.3177,145.9750,-61.6254,80.1826,38.5954,-261.4352,-46.4213,15.5725,58.1558
-2687.5000,21.8823,-15.6195,-31.4241,-134.2461,-117.1041,-79.5982,135.7737,-67.9097,267.7627,-5.3426,32.9677,-86.3131,-33.0035,-130.2354,157.4047,-31.1861,58.5251,63.4315,55.8211,62.4472
-2679.6875,33.5183,66.1818,-89.7612,-17.6302,-175.4073,-46.2945,40.5743,21.0313,319.6909,83.3244,121.5410,-72.8118,19.5601,-42.3445,26.1287,21.5398,-140.0352,-30.2088,-38.4193,4.2416
-2671.8750,175.2517,173.0736,134.0217,125.0920,11.4214,78.7325,228.5092,98.1091,-889.4587,14.1131,52.2177,4.7866,-12.7273,-1.3444,-44.0533,25.3658,-33.5312,6.2580,-0.5560,-28.8647
-2664.0625,-36.9578,-73.9694,-49.1223,-120.1238,-244.6842,-95.6516,-102.4802,-157.7313,950.6661,-59.0040,-21.0221,5.4778,-83.8861,-0.2435,-6.1143,-47.7125,179.0856,41.8469,0.4074,-27.8604
-2656.2500,121.6757,13.8163,193.5820,109.5110,107.0704,62.7902,177.3851,84.2894,-646.4062,72.7523,73.6009,26.0064,11.8579,20.7105,-169.3214,10.0766,-85.4960,24.2950,-86.7961,-80.0011
-2648.4375,84.7063,-22.0194,154.6883,3.5387,32.2307,-5.1510,-8.3338,-101.2914,13.8605,-76.0914,-75.3869,24.9295,-172.9697,-53.9292,-60.1215,-27.7289,231.3218,165.1667,-51.5986,-44.7336
-2640.6250,53.1430,16.5584,49.2026,42.9824,-37.1931,-73.7212,-223.6267,-169.4364,570.7566,2.5254,3.0672,29.3000,-93.3174,-86.1171,-55.4575,13.9202,59.5736,99.5041,-186.9510,-40.0046
-2632.8125,299.5270,228.0872,307.6713,220.3939,258.3572,24.2119,-1.9397,-94.5956,-935.5828,-32.8854,41.4829,66.6259,-53.6666,-121.3652,-90.8488,-21.4644,25.7255,100.8069,-221.3537,-38.3221
-2625.0000,97.8320,25.5408,20.0618,-85.2796,-101.1665,-147.5618,-288.3204,-306.8205,873.1583,-99.3483,-26.1607,36.8946,-120.0431,-112.6749,63.7188,-51.8954,246.8396,110.0854,-175.7966,42.3206
-2617.1875,168.1190,96.9726,132.4470,20.0368,83.3123,-8.2616,-139.7041,24.9692,-448.1018,122.2098,123.2095,1.1516,30.6289,-38.9773,28.2870,97.6769,-104.0827,6.3666,-174.2417,43.9652
-2609.3750,158.1543,51.1376,84.5968,-57.8950,-1.4360,-7.7880,-150.3091,-22.4758,-311.7298,112.5201,-34.6750,-9.8524,-89.9202,-48.5256,54.6104,86.9916,132.7426,102.4196,-42.9272,70.3622
-2601.5625,-36.2049,-3.0886,-118.6341,-112.2109,-203.5649,-60.2655,-354.2889,-41.2899,698.4855,165.4717,-17.9212,6.7951,-71.7908,41.5773,34.5976,103.9452,43.2168,-21.8581,-59.9558,87.4164
-2593.7500,226.0899,296.3317,121.7969,187.1372,72.9878,107.4491,-149.5892,126.5738,-1120.8202,186.0920,38.4983,64.0908,-49.9643,62.3355,-18.7705,124.5537,-78.7082,-38.4816,-147.3349,71.1203
-2585.9375,58.9645,269.3386,-90.1946,21.0555,-285.8857,-44.6843,-509.2983,-158.9814,543.5541,47.3160,-99.4973,145.9887,-149.5264,33.6876,63.4758,58.7673,176.9776,41.5185,-172.1029,116.4318
-2578.1250,95.8221,341.3282,-13.2058,198.9579,-134.7787,55.9055,-358.0175,28.4706,-335.0144,198.5660,13.5147,149.8885,-35.0521,38.0327,-42.2759,172.9931,-137.3674,8.5185,-239.8756,83.7461
-2570.3125,136.7416,277.3718,31.8502,135.9261,-16.6045,79.1429,-127.6636,0.9936,-693.6924,60.8712,-50.4216,121.8503,-98.5019,-26.5774,-105.9855,72.2677,115.3274,156.5889,-57.6051,56.1113
-2562.5000,-2.8244,-38.0630,-73.5730,-106.5877,-120.9176,-84.3581,-269.7991,-176.9593,708.3727,-45.2766,-9.8177,15.3664,-18.3814,-21.6350,-29.1338,-33.9130,187.5813,89.2261,16.2159,24.0349
-2554.6875,307.0723,94.9534,217.4700,96.3563,279.2392,67.1649,56.5288,39.5573,-1133.2531,-84.9471,134.2527,12.3283,90.2310,12.7628,-105.8370,-110.6265,40.2377,47.3140,9.4754,-52.5878
-2546.8750,235.1224,59.1002,69.6608,-114.5779,22.5354,-80.7405,-162.9946,-215.7951,301.3040,-304.4707,-49.5330,48.4329,-91.9924,-60.6910,-31.3793,-219.1836,357.0533,153.5683,115.8924,-52.0485
-2539.0625,276.7035,206.7735,45.3791,34.0087,71.3622,-29.6164,-113.9822,-57.6140,-90.4829,-182.4252,36.2397,98.0793,-4.6346,-48.5936,-129.3615,-171.1815,82.3867,90.3803,17.8584,-149.9481
-2531.2500,400.1444,400.3018,140.9543,158.4511,241.0645,53.0960,18.9145,2.4373,-987.5993,-233.5121,-52.1345,156.5695,-91.4022,-62.6350,-143.5010,-185.3216,206.5396,145.0628,1.6827,-200.9924
-2523.4375,328.0531,363.3045,-117.0128,-18.6469,-91.7761,-122.9079,-312.7109,-219.0320,740.9787,-271.0952,-126.0313,192.5516,-127.6683,-26.1789,-144.1191,-185.9601,240.2011,73.2675,-33.9755,-201.5296
-2515.6250,637.6667,532.0075,135.7242,185.9583,235.0943,3.6759,14.3799,-38.7799,-1028.8279,-200.9435,-20.2159,188.2331,-20.2031,6.9704,-259.0390,-79.8930,-12.4811,-2.8251,-110.9431,-242.3718
-2507.8125,572.3469,361.7651,30.5226,-54.3906,93.0174,-122.7172,-91.4795,-291.4845,43.3868,-378.7465,-162.3586,155.9674,-123.6820,-24.8458,-179.9078,-147.7871,309.8983,110.1568,2.1368,-200.1622
-2500.0000,492.7253,281.2198,21.9962,-63.0596,84.6145,-149.9612,-62.6716,-262.5128,182.4312,-314.8557,-23.7949,73.3955,16.5579,4.0367,-151.0730,-82.9818,89.9703,-4.1455,-41.0946,-208.2484
-2492.1875,661.4481,415.0066,199.7923,71.5967,299.5444,-28.4823,152.4580,-121.2297,-1110.4325,-283.6671,-66.9204,67.1299,-60.8801,-1.7779,-156.9536,-125.8807,118.3206,24.8682,22.9663,-214.0375
-2484.3750,400.9201,260.5420,-108.6907,-117.0247,-82.8101,-159.9696,-155.6889,-245.2257,751.6079,-297.7362,-191.3176,126.6310,-147.5760,-52.8526,-98.0821,-176.0434,211.4468,47.6537,80.7867,-191.0777
-2476.5625,488.8581,418.5495,-15.7295,147.8099,195.2820,5.2603,84.6229,33.2416,-735.9484,-130.3395,-61.2668,183.5919,-14.8076,41.5285,-187.7661,-45.7538,-193.0139,-110.1113,-5.9447,-207.6763
-2468.7500,411.5260,306.2899,-63.0646,0.3451,74.0800,-54.7500,0.6525,-87.5917,-47.8863,-214.2531,-182.5285,172.2526,-134.3403,30.6127,-50.7424,-19.7686,46.2277,-80.1643,-11.9762,-107.5787
-2460.9375,228.8376,124.6657,-144.7773,-110.4987,-81.5132,-140.3514,-117.7090,-168.7918,790.0003,-74.5079,-80.1453,90.5593,-67.2141,96.3461,-22.0577,45.8696,-64.8853,-190.5558,-51.3620,-41.8313
-2453.1250,361.5270,186.4075,102.8902,58.0303,167.2755,-0.9588,242.3077,6.3912,-652.9617,-9.3929,-89.3941,45.2153,-74.7151,51.4163,-68.0357,110.8642,-107.6868,-196.5977,-23.4065,-13.7349
-2445.3125,100.4197,31.3555,-170.2660,-201.2766,-179.7619,-170.9196,-68.4905,-193.2511,1207.3900,-63.0856,-215.4524,28.0629,-199.0220,-39.3271,100.2002,58.0573,124.7298,-139.4215,33.7554,43.5718
-2437.5000,174.8274,139.7990,-54.9431,13.9059,46.6969,-37.3477,85.2111,33.6114,-74.7444,90.7287,-62.9973,34.3936,-81.8055,-32.5615,69.9339,64.7637,-152.3916,-169.7430,3.4152,13.3842
-2429.6875,226.0202,120.9855,-0.8594,-5.1605,26.9218,-33.3129,65.6822,-59.7634,-129.2640,-1.7000,-117.7939,14.4812,-171.8318,-88.0442,87.4193,-28.7739,75.2254,22.7025,20.8269,30.9524
-2421.8750,47.4865,-22.5709,-111.5150,-146.9658,-157.5912,-136.8591,-155.5852,-132.8484,898.7078,71.1944,-10.2997,-61.1198,-62.5634,-53.2249,49.2146,-30.0129,-32.8605,-13.5345,-16.4553,29.8307
-2414.0625,246.0847,71.0101,208.9872,87.3924,200.0665,23.1462,128.3251,41.2575,-986.3236,135.2781,127.3594,-107.5740,39.8683,-25.2451,3.1548,-2.0873,-148.8400,-24.6113,-26.5810,-16.1382
-2406.2500,29.2381,-110.8438,55.0772,-163.6734,-100.6904,-149.2401,-98.1685,-259.0467,699.3502,-55.0266,-26.4025,-113.4399,-112.1157,-68.6711,217.7161,-8.5594,125.8038,40.9359,38.9138,14.4946
-2398.4375,64.6107,-75.4649,168.4152,-57.4995,49.7940,-108.4949,88.5742,-145.0932,77.3360,58.9324,87.0939,-111.0536,4.1550,9.1572,184.5275,32.2310,-189.3284,-133.2666,-29.3518,-18.6147
-2390.6250,108.1547,-30.9268,214.9200,-48.1635,59.4577,-58.7768,246.4834,-134.9677,-315.7205,-3.9538,-13.2522,-64.5158,-95.4180,19.1465,194.4722,5.1866,-40.3253,-52.3010,15.5252,-8.5519
-2382.8125,-87.0250,-191.1209,-63.3258,-206.5647,-217.6243,-170.3567,-68.3472,-264.5681,1098.7087,13.4592,-33.3038,26.3183,-113.6950,36.4417,211.7373,59.4524,-24.0083,-71.0151,32.7082,8.8319
-2375.0000,139.6996,-35.4080,175.3266,89.9468,130.2084,39.0350,96.7391,47.7547,-833.0831,141.8053,58.5612,44.0592,-57.0624,17.6495,118.9022,150.6273,-218.8382,-89.8298,-21.2125,-9.8839
-2367.1875,77.4732,-96.6434,-2.9792,-146.5032,-119.9238,-83.4633,-153.1299,-128.8754,498.1932,38.2081,-118.5448,49.8702,-232.4017,-49.0945,162.1255,9.8507,106.3954,26.4280,58.9178,70.4514
-2359.3750,107.3842,-32.7382,-7.1556,-10.8115,-86.9335,-41.1562,-119.8787,13.6408,199.7152,181.7786,23.5004,8.8430,-87.5955,-52.6832,122.4987,-30.7707,-179.2332,-48.1575,-50.8090,66.9407
-2351.5625,237.5232,132.3831,93.8932,120.0973,12.2862,42.6772,90.5956,78.3754,-728.7600,172.5656,-23.2386,-0.9888,-95.5840,-98.0678,76.0548,-76.1801,-83.6714,13.4697,-25.3408,57.6288
-2343.7500,13.1954,14.0409,-139.5225,-137.4680,-330.9735,-136.0859,-142.4083,-117.3770,1024.4844,123.8750,-71.4399,-50.2760,-106.0350,-73.9030,173.1657,-16.0401,-26.5206,-33.3338,-36.3209,81.8724
-2335.9375,118.9805,154.8112,83.1822,74.0869,-35.1169,42.1024,117.6973,141.9792,-701.2767,237.2946,77.4732,-11.4575,7.6274,38.3568,29.3728,98.2064,-307.2976,-102.0414,-70.2075,48.2168
-2328.1250,5.9656,6.7701,-34.9455,-108.1807,-189.0851,-22.0399,-1.0251,-12.4901,247.2869,82.9055,-113.4218,17.5755,-144.5321,30.8004,95.8000,53.6523,2.1582,33.4698,29.1149,77.7664
-2320.3125,-74.6345,-73.8677,-152.6862,-117.0416,-196.6436,-25.2161,-45.3447,91.4462,497.2096,148.9190,-11.8937,10.0117,-41.2833,23.6550,14.6321,119.4974,-218.0122,-46.6121,90.8271,33.7055
-2312.5000,132.3896,27.1142,28.1916,18.6978,58.4124,111.1655,247.9462,272.9842,-864.3583,73.5315,23.2270,-65.9520,-41.4539,22.1209,-60.9346,80.9419,-222.5744,-14.0832,158.1332,-4.7620
-2304.6875,-72.3289,-141.6390,-257.7112,-254.3477,-227.3165,-68.1779,-1.5444,24.7592,946.4802,-27.5714,-42.4164,-57.6726,-105.3982,30.8412,-15.2498,-20.3519,-3.8954,-5.3106,271.6843,4.0260
-2296.8750,145.4012,40.0413,-64.2024,-36.9727,39.3696,41.8514,340.3910,218.9634,-550.4568,93.7561,115.3484,-83.9887,54.0481,77.9460,-188.1681,-46.2343,-278.8470,-139.1450,208.6337,-58.7811
-2289.0625,119.0830,13.6734,-91.7585,-133.6743,-61.0170,-3.7960,313.2722,82.0894,-26.3372,-42.9863,-21.9510,-37.3535,-81.5770,50.9820,-178.1193,-183.1742,11.1847,-23.0139,253.5511,-48.6291
-2281.2500,-22.5416,-56.9860,-237.6219,-202.6773,-170.7076,-68.7602,129.8562,82.9136,747.5001,67.9855,15.4658,-74.0175,-42.5018,51.7140,-141.3657,-182.4029,-130.1099,-57.1873,184.1631,-47.7802
-2273.4375,183.1203,42.6339,-22.2294,2.5739,118.8613,77.3849,383.7105,262.9954,-948.5360,138.2388,47.1271,-115.4366,-8.1986,-25.3024,-108.3712,-76.3686,-170.1641,-26.0990,180.0287,-51.6869
-2265.6250,-62.9049,-203.4446,-241.5763,-277.9100,-138.3019,-81.8664,89.8358,43.3664,854.9020,28.8051,-98.9237,-151.5557,-116.6212,-24.0164,39.9264,-38.0359,112.0886,10.2905,251.1913,-50.2945
-2257.8125,77.0121,-98.5846,-19.9975,-67.4740,121.4678,5.7264,238.8732,192.6526,-282.9301,142.2599,123.9395,-186.7678,33.8519,51.1867,-30.8934,37.1982,-205.7779,-129.4237,40.2385,-85.0043
-2250.0000,214.9466,4.2859,7.5925,-70.0502,113.2322,13.2883,83.8922,74.9118,-364.7277,-50.3082,78.7901,-119.9646,-9.7107,43.3997,-39.7072,-7.5736,2.4007,-26.1339,-66.7214,54.2920
-2242.1875,2.5444,-102.1803,-217.1805,-139.9745,-148.3751,-63.8526,-288.4622,-39.1800,734.1775,19.8034,147.3004,-88.5011,24.3586,3.2559,-5.8701,61.3246,-67.7815,9.7899,-101.0507,160.2390
-2234.3750,45.2753,-58.5204,13.1622,114.2265,155.1282,157.6938,52.2993,227.8437,-1093.9797,104.0305,194.9100,-40.9259,72.5064,13.2103,-68.9388,109.3361,-235.8620,89.8280,-57.2876,134.2840
-2226.5625,-202.2011,-273.0597,-100.7221,-133.7910,-105.6085,21.2408,-97.1774,5.6400,483.8283,-7.9472,8.3069,-7.5505,-75.5722,-26.0453,1.8014,-2.8513,8.8854,193.6838,46.2786,168.1302
-2218.7500,-225.3838,-225.3081,-49.3493,-15.5407,18.9262,86.1456,27.6145,166.6963,-199.2316,153.3387,131.9635,6.0741,86.5829,-11.0578,-57.2159,-24.7962,-331.1452,136.7876,24.0891,146.2227
-2210.9375,-228.3895,-158.3711,21.1701,50.8492,89.6022,149.1431,135.5490,164.8866,-643.1309,40.7541,55.7612,3.8529,12.8566,-49.9264,-59.0782,-100.5978,-87.9930,240.0437,92.0560,144.4661
-2203.1250,-466.0917,-290.1146,-187.0225,-114.4574,-155.4428,-7.8825,-72.2367,-6.6442,987.3715,53.4665,30.8644,-57.0618,-10.5836,-74.4987,-46.6447,-125.0996,26.4541,180.5969,103.3168,120.0048
-2195.3125,-221.4808,-116.5693,71.0540,129.5120,176.7877,160.7063,223.2538,253.0962,-812.0482,129.4489,107.2270,-128.7272,66.2041,-36.8282,-117.9809,-13.3515,-150.8682,109.3930,66.8178,48.7851
-2187.5000,-341.7413,-270.9204,-127.7919,-94.4503,-22.9169,43.9789,-13.1829,53.9163,459.7926,4.5366,-55.3233,-107.3002,-57.9454,-15.0643,49.7832,8.5012,115.9397,166.2831,123.4174,70.6692
-2179.6875,-363.4979,-292.7847,-149.1874,-11.9501,29.8319,106.4959,-70.1743,180.1964,180.9962,58.0902,107.5978,-92.4269,106.3401,148.1466,28.9854,98.8157,-151.8201,40.6160,32.4534,49.9987
-2171.8750,-227.3707,-192.7525,29.2815,89.4183,209.4358,185.9311,145.6695,250.3152,-926.0122,17.4807,103.3578,-96.6939,103.4428,34.1986,25.0353,94.9707,-51.6975,141.8193,28.3348,46.1714
-2164.0625,-453.6855,-349.1461,-170.7204,-171.6522,-64.4330,-25.4932,-89.9716,12.9639,860.6549,1.4067,49.6636,-112.4017,51.0691,-91.1936,119.6313,78.6729,38.9815,162.5697,48.7566,66.8863
-2156.2500,-286.2163,-146.7838,5.9896,31.0090,223.4238,106.7676,234.1079,228.3215,-764.1702,143.0198,116.6826,-155.3868,156.3744,-24.8785,39.9175,146.0700,-250.6603,50.0151,75.8558,24.2911
-2148.4375,-336.2060,-126.8899,-83.8269,-159.8490,22.7403,5.8833,180.6541,65.1492,175.6208,-19.8806,-82.8161,-171.8605,-42.8573,-41.0754,133.7169,56.9620,50.2221,70.9665,237.4545,45.1971
-2140.6250,-322.6819,-113.4471,-215.1366,-145.1980,-108.4502,-18.8352,159.6886,117.4845,596.8639,106.7384,-67.7956,-192.8322,-25.6050,49.2216,113.0083,73.3624,-146.4094,-90.5932,181.5437,24.5986
-2132.8125,-113.5507,61.6311,-32.8227,64.0742,74.9647,154.1521,380.3275,338.4201,-801.3979,143.9581,-104.1702,-156.1929,-133.7870,49.1175,39.8885,36.3604,-147.4204,-55.5376,216.2393,24.5925
-2125.0000,-391.1207,-144.9854,-324.2363,-143.3550,-253.3580,23.2423,51.2199,156.6440,1003.7928,110.4693,-212.2527,-154.2359,-204.7011,14.3192,116.0600,1.6627,65.8850,19.8246,290.2291,63.8774
-2117.1875,-292.3625,-47.3079,-109.3947,95.4881,-2.4047,179.8041,267.3831,447.1460,-471.9480,216.2391,2.9089,-159.0127,-25.3994,9.7782,0.4706,71.2209,-222.5857,-57.5626,178.4571,22.3975
-2109.3750,-213.7801,-74.8216,-65.7741,-1.8966,-104.6712,86.5281,237.3407,233.4306,-60.7917,113.8022,-63.1581,-151.9845,-126.3472,-55.9670,81.6819,78.5699,31.7746,-13.1375,116.5000,66.7145
-2101.5625,-240.3349,-136.4736,-205.3052,-62.4299,-245.0844,-56.4393,60.1378,19.5660,829.2418,158.2191,53.6383,-108.1018,-44.4645,-47.8596,162.7278,122.7672,-101.0172,-143.8730,-15.6150,110.8739
-2093.7500,57.9860,91.7533,31.0414,129.9166,28.3851,57.4379,261.7922,74.5508,-845.0225,102.4761,108.2928,-17.3665,10.2470,6.0914,180.6181,140.8144,-188.9328,-160.7527,-102.8859,128.8738
-2085.9375,-158.3551,-19.6710,-232.2694,-121.4016,-308.8132,-99.1351,-148.2394,-225.1430,914.2224,-49.9317,-44.6994,85.7245,-105.7097,109.3732,320.8715,134.2145,85.5350,-130.2956,-72.8170,159.2209
-2078.1250,-38.0172,66.5909,-102.8949,69.9641,-142.3323,32.3064,-55.5985,13.8234,-170.0309,116.3186,46.9737,142.4678,-12.0265,166.2938,156.7765,190.2639,-179.3574,-219.2091,-56.1152,105.2153
-2070.3125,76.2427,74.7749,14.3735,42.2200,-96.9641,45.2087,-11.0573,22.6660,-381.3316,88.4501,-53.4724,77.1176,-149.4800,64.1151,91.5833,126.2050,74.6850,-140.2211,56.4961,114.1114
-2062.5000,-76.7756,-44.3121,-146.6881,-75.8234,-295.9127,-50.8313,-245.8279,-26.7925,891.1434,74.2889,4.7733,-10.5227,-89.2674,49.6443,77.0838,111.8492,25.4100,-187.5440,43.8090,136.7008
-2054.6875,73.6140,141.9938,122.6082,180.5127,9.5092,130.5495,22.7815,169.1161,-935.1841,124.4764,127.3677,-34.8116,33.2606,99.5112,-20.0692,161.8416,-139.5145,-141.5142,-15.5314,112.6327
-2046.8750,-89.4346,48.8620,-85.5666,-52.6243,-197.5503,-56.0835,-258.0855,-149.4525,621.2111,-45.8017,28.5048,13.4372,-25.7101,1.9136,65.3416,100.3799,188.1508,-23.9370,-37.3193,125.1165
-2039.0625,23.4520,91.6621,35.1900,95.1619,-40.6929,-50.1516,-136.0421,-137.1163,44.3881,38.8213,150.5558,25.5838,133.2072,13.2148,40.6371,148.8161,-85.2822,-155.4758,-170.2106,63.4963
-2031.2500,148.7237,110.8364,166.3120,114.2950,91.5195,-2.6491,105.3494,-152.4530,-559.1035,-86.2249,24.9504,10.0850,44.4310,34.8638,62.2663,97.5988,74.6806,-100.6669,-114.7374,48.2249
-2023.4375,-157.9286,-55.9244,-117.5442,-121.5265,-193.2375,-124.7506,-105.2433,-252.7604,1032.5621,-76.2310,-39.6090,-54.3533,17.6789,81.5705,144.9426,70.4339,118.7007,-90.8124,-36.2156,57.9966
-2015.6250,-19.6941,84.2096,66.4682,122.5309,101.8833,71.4144,227.0350,78.8048,-805.1069,109.6227,36.6816,-51.9306,93.7436,83.1273,0.4590,109.1256,-129.4323,-92.1082,-1.8409,-13.3997
-2007.8125,-161.8248,-23.0026,-42.8855,-89.7734,-44.3607,-44.5050,42.9415,-103.9927,409.0245,-35.8797,-147.4011,-50.8595,-88.5866,11.3148,74.6267,0.4658,221.1294,48.2451,103.2049,-49.1607
-2000.0000,-160.6196,-57.8745,-2.9286,-19.7527,32.7072,-29.7928,47.1570,10.5355,376.3902,41.9302,-69.1728,-47.4903,-10.6352,14.7858,5.0721,-68.8922,10.9731,-56.1213,68.5348,-118.6331
-1992.1875,1.7927,-0.5460,167.1836,107.4311,202.9237,102.8988,217.5143,144.2108,-703.1658,28.8772,-119.8008,-23.9555,-59.5691,38.4119,-45.3450,-119.1078,66.9925,36.6669,89.9974,-131.9531
-1984.3750,-278.2762,-174.7022,-90.2311,-136.8886,-91.3934,-59.0513,-113.6732,-38.6380,1098.9053,29.3130,-193.9249,-23.9108,-96.0360,1.5448,28.7429,-118.8290,209.5284,73.9545,91.9520,-94.7725
-1976.5625,-73.4556,-4.9757,125.2348,137.6781,235.1713,99.6727,103.0175,177.3773,-633.3546,172.5906,-14.1917,8.9972,47.3296,34.5305,-122.3299,-49.7064,-44.0953,33.0867,-20.2560,-135.7533
-1968.7500,-121.0707,-17.6878,74.2478,54.7885,146.2691,26.4675,-58.7629,-57.0887,50.0556,-25.6049,-138.9276,68.4657,-76.7982,-16.9494,-62.8477,-63.0431,294.8779,160.7646,-32.9106,-113.1906
-1960.9375,-138.0662,-34.7682,-17.1322,72.5167,55.9755,-6.1343,-223.9463,-73.9488,475.0457,-5.1946,-9.0533,14.5391,16.6599,40.1610,-79.7809,-6.7753,136.4379,74.0285,-84.9782,-130.0402
-1953.1250,125.1612,86.3908,221.7033,229.4635,330.8987,118.9102,52.0832,91.3975,-1014.8646,-23.5899,9.0199,-4.1863,-1.7107,21.4581,-98.5255,-98.3025,117.2218,55.4937,-33.8468,-148.6977
-1945.3125,-63.8097,-66.6433,-13.6796,-29.8035,-14.4065,-34.8710,-256.1232,-106.4681,773.1877,-147.1862,-115.1188,-18.1177,-88.3167,44.5541,34.5311,-149.0358,315.8308,78.7498,25.0847,-125.5586
-1937.5000,73.9407,107.0045,168.6114,178.6023,204.9636,105.2315,-110.6577,186.3389,-662.2900,72.8698,30.3996,17.5989,20.7037,116.3180,-77.7727,-77.1219,-3.9145,-65.3608,-84.3450,-163.7807
-1929.6875,79.9370,147.8811,135.0957,113.2019,98.5171,81.8476,-144.0164,43.3184,-401.4936,-69.8993,-75.8978,58.5171,-85.1070,121.2691,-72.8792,-146.0108,282.5874,46.7302,-43.5748,-122.8103
-1921.8750,3.8013,70.6415,-18.5711,36.6652,-56.0903,-20.4672,-296.5515,-109.8591,548.1713,-149.8233,-9.3323,162.2889,-54.0585,151.0550,-79.1447,-152.0390,240.9405,-30.3441,-119.9710,-128.9995
-1914.0625,271.6896,268.4426,262.7917,339.1570,262.3221,111.0495,-16.0746,-49.0284,-1156.3154,-235.7565,52.2379,224.0638,6.9988,65.8406,-165.4311,-164.0727,226.3056,-8.4231,-169.3801,-178.1948
-1906.2500,55.1297,86.8052,72.6802,122.1829,-38.7456,-67.2009,-244.0852,-311.6741,565.9122,-351.1573,-65.6528,254.3877,-72.4123,-87.8281,-98.1696,-133.5622,432.2479,57.0471,-104.2332,-147.8425
-1898.4375,107.7406,104.3184,163.6746,279.3365,126.3140,61.0979,-41.9759,-74.2048,-445.9008,-186.4609,63.5644,235.8098,56.2733,3.5863,-190.8221,-41.9468,61.2647,3.6078,-157.9996,-166.4047
-1890.6250,101.3840,133.8550,192.6700,203.4908,118.3766,93.0292,24.1366,-80.7562,-673.6820,-230.7960,-18.2316,265.2324,-61.0763,106.9822,-161.4742,-85.3549,161.3288,103.1763,-128.7546,-136.9789
-1882.8125,-164.3824,43.0025,-50.7305,77.2521,-160.9625,-1.4012,-328.1597,-139.7177,665.2141,-104.5448,-3.4224,280.2618,-45.8461,157.9777,-109.5348,-34.1761,70.0057,83.3258,-184.9062,-121.9662
-1875.0000,-12.7094,159.5912,145.3056,298.4403,108.1334,179.1480,-60.0396,166.7396,-1162.6606,55.0906,82.7937,291.7075,39.7582,133.3747,-171.2173,15.3952,-60.9027,23.8726,-173.6600,-146.5685
-1867.1875,-155.8692,-54.6544,-6.5212,49.7615,-116.6470,21.7507,-247.8025,-57.6844,414.7752,-133.1479,-32.8527,251.3156,-37.5282,18.9116,-101.7523,-98.8870,323.3797,56.5709,-36.2729,-114.0281
-1859.3750,-76.3906,25.7295,114.2616,164.7207,41.2002,66.4670,-163.9682,63.5023,-89.2980,-121.7878,89.1193,188.5240,120.7797,67.0379,-164.7017,-87.5613,86.2549,-75.1407,-132.3136,-139.8989
-1851.5625,45.7495,111.7841,277.7186,215.3487,166.7087,117.1971,35.5007,42.3179,-808.7543,-179.8112,-6.2611,167.3855,-11.2879,82.7984,-148.9975,-108.5945,242.8348,-59.1945,-46.7142,-124.1245
-1843.7500,-134.3017,-68.3393,-25.0257,-106.2105,-135.9929,-82.3458,-120.2710,-150.0939,947.6926,-187.0633,-87.8426,123.0474,-55.5793,111.3560,-9.4881,-42.8393,202.2375,-169.4465,53.6657,-58.5573
-1835.9375,62.2603,58.1449,141.8136,53.8220,141.8918,50.8598,267.5324,91.0435,-723.5000,-56.7867,42.1324,106.2711,38.6565,94.4641,-63.4464,50.4503,-93.8092,-218.1510,38.5796,-38.4512
-1828.1250,-20.7745,-95.9582,-23.9649,-133.7560,-96.8341,-77.4096,102.7133,-146.4557,471.8520,-147.1408,-85.5104,124.9054,-88.7508,-34.0439,29.0031,-3.8660,209.5914,-91.4581,60.9062,54.0504
-1820.3125,-45.9013,-85.1475,-50.8360,-54.4173,-122.6416,-55.8212,1.8094,-63.0356,445.0504,46.3989,34.7539,99.4445,30.7247,-23.6546,-106.6604,80.7294,-27.1179,-114.8850,-34.8634,64.4456
-1812.5000,102.3197,27.9984,139.6001,93.2342,103.8538,66.3689,155.2204,53.6958,-762.5124,53.2279,-32.6903,106.2839,0.4564,-52.9799,-137.0410,87.6205,50.4956,-39.0170,-63.3219,71.1343
-1804.6875,-85.7897,-90.1693,-131.3398,-165.4726,-168.0388,-114.6506,-152.7408,-143.9370,1025.7190,1.6971,-119.4918,91.7628,-123.1963,-66.6609,31.2165,36.1507,177.7795,-51.4993,-41.1289,93.4678
-1796.8750,126.6315,52.1999,17.2530,46.3644,91.6090,21.0480,106.8197,78.9439,-553.7277,151.6493,29.2160,94.7396,-11.3622,8.1493,-40.0404,113.1748,-136.4263,-155.4810,-109.4478,59.2933
-1789.0625,51.5466,-58.9316,-136.6480,-65.2985,-99.2490,-25.4616,24.8598,-2.7155,210.4403,71.0690,-124.5939,50.2260,-128.0675,-71.5494,26.2078,142.6851,172.9297,-89.9619,-11.2671,88.6188
-1781.2500,-90.1046,-164.6386,-175.1470,-100.5437,-174.6972,-67.9964,-49.7085,33.0235,723.9887,216.8868,-52.9984,-24.8786,-55.3885,-72.8494,24.8420,177.6009,31.6735,-197.0570,-12.6979,87.3367
-1773.4375,141.7366,-2.8547,103.8199,94.6810,104.3245,78.7455,155.1864,202.2054,-835.1112,202.1317,-31.9687,-75.5222,-34.2840,-87.7066,9.9147,126.9667,51.8867,-141.7032,-62.6803,72.4994
-1765.6250,-22.2715,-95.9179,-70.0792,-139.9548,-216.5309,-86.6159,-275.8022,-44.4859,1013.1174,64.5026,-131.7984,-65.0136,-135.0584,-115.4215,56.1367,62.4737,274.2830,-59.2157,-50.5075,118.8099
-1757.8125,146.3470,71.6473,106.6645,98.0473,33.2411,27.8249,-172.1575,95.4353,-317.2138,168.4617,81.9826,1.0982,4.7590,-48.5432,-96.0524,130.5805,-50.7198,-102.1512,-199.7359,75.7119
-1750.0000,191.3283,80.5776,114.7601,71.3909,41.3499,22.3682,-274.1705,-43.3029,-199.1179,-43.2474,16.0910,46.5604,-96.1144,-76.3435,-51.8858,28.0349,239.6733,81.2642,-191.5992,83.9607
-1742.1875,74.2190,-0.5809,28.7469,-11.3590,-80.6453,-83.7323,-544.2899,-165.1340,744.9142,-55.0508,115.1012,34.9163,0.8962,-88.2521,-27.8277,16.3876,156.9653,69.5698,-273.5534,72.0959
-1734.3750,318.3339,172.4750,320.9562,232.1158,248.5980,63.6459,-252.1771,-20.7420,-1059.0029,-20.6754,149.3095,-3.5341,73.0837,-90.9608,-102.5817,14.9349,83.4783,66.0773,-277.2980,33.4179
-1726.5625,74.5456,-0.3742,101.2519,-12.3297,-46.0715,-90.5334,-434.9787,-276.2746,633.3543,-129.2383,-34.3935,-2.8847,-72.6526,-126.5789,44.7664,-57.4361,332.1336,173.6673,-204.9334,70.8408
-1718.7500,122.7997,46.8169,152.5748,141.2500,116.2908,7.1734,-273.7581,-78.7989,-307.4171,-4.8183,127.9168,-24.2299,88.6049,-39.2008,23.1035,-5.8119,-42.2187,80.2269,-228.5762,12.2630
-1710.9375,163.0811,52.0219,193.9092,109.8287,157.6541,35.4440,-158.5342,-74.3539,-635.1547,-74.4430,22.2137,-19.5776,-18.1705,-34.8266,100.4490,-38.2083,102.4803,119.7854,-119.2038,16.6847
-1703.1250,-62.9359,-68.0696,-44.0623,-80.8962,-116.2917,-87.3387,-359.6169,-126.2229,855.9013,-54.3845,5.2056,37.7735,-35.2575,-51.7512,120.5048,-54.9086,-17.1128,70.0220,-99.1300,36.7997
-1695.3125,85.4317,116.2142,111.3489,137.7471,112.1578,104.9977,-21.3092,138.2712,-937.8573,65.0072,50.5470,82.4774,9.9944,30.6564,18.9058,27.7373,-256.3518,76.5980,-92.6969,8.2584
-1687.5000,-64.5633,1.1365,-120.6108,-83.9921,-119.7547,-43.6397,-142.3682,-93.6138,484.2099,-93.9715,-72.4812,71.8304,-111.1290,-18.3075,116.9720,-20.9702,15.0861,101.8217,3.4114,33.3731
-1679.6875,19.6829,14.3165,-70.3091,-0.4728,-32.3932,-46.2292,-56.1580,-6.2229,93.4343,30.3036,125.7491,12.4297,85.9930,-4.0222,131.2856,30.5855,-288.2536,-96.7058,-55.2260,10.7374
-1671.8750,164.0128,87.5890,43.1041,37.1475,44.0811,-0.0311,167.1606,33.2709,-565.2604,-4.3372,55.0649,15.1251,14.1840,-1.6416,170.7011,-3.7610,-179.4618,-129.1195,18.2524,13.2058
-1664.0625,-67.1487,-36.6253,-198.9429,-193.6880,-307.8961,-177.8595,-38.9883,-134.6973,1214.7272,-26.4396,-4.0712,-6.6288,-8.0853,-60.7151,295.6695,-25.5590,-130.1094,-147.9872,33.2906,28.2294
-1656.2500,124.6747,189.1537,0.0309,101.4851,-35.8472,-4.2450,344.8881,137.3308,-571.3427,99.4315,121.7833,-27.3854,81.6283,-81.7961,201.6417,-9.3656,-396.7199,-204.8433,-22.6604,7.2552
-1648.4375,4.7576,69.2002,-90.7085,-54.0512,-198.5145,-88.6136,218.0442,-63.3673,478.0658,-64.4197,-79.0670,-80.8443,-82.3704,-133.5839,258.9265,-25.8763,-24.0045,-79.4020,67.6964,27.5841
-1640.6250,-36.9478,27.4519,-96.2104,9.6438,-167.9388,-63.2599,175.4354,5.1593,546.4892,3.9228,26.2976,-123.1088,21.8312,-67.1743,142.4013,5.8170,-172.0926,-121.7703,-9.7419,-14.8872
-1632.8125,148.8796,143.2444,172.8295,159.8764,100.1685,32.8110,406.3660,52.2188,-766.4100,-59.2135,0.1930,-148.8284,-4.4427,-130.2355,116.4366,-19.9464,-56.5814,-41.5858,-35.6089,-40.7997
-1625.0000,-59.4382,-65.0896,-48.2807,-85.0280,-192.8726,-136.3871,39.1561,-203.8654,1072.5392,-168.5051,-37.0573,-147.6989,-78.8681,-129.4556,190.3137,-56.8587,156.7655,-4.5705,-33.6232,-3.8647
-1617.1875,134.7713,94.0967,155.1296,179.5852,45.6089,27.6055,168.4688,-1.4421,-563.1262,-40.3202,92.1863,-92.0654,51.1910,-37.1871,25.6958,72.7237,-107.3747,-93.0546,-122.1332,-21.4306
-1609.3750,93.5969,52.9028,72.1145,32.7714,-37.3370,-27.3486,11.3431,-157.4570,15.0039,-159.5623,-27.9834,-64.8315,-69.1643,-47.3333,15.6913,26.8937,239.1093,7.0551,-58.0453,42.6033
-1601.5625,-14.8790,-20.6109,-44.2212,-6.3674,-78.5938,-76.6985,-177.1004,-235.8132,561.6118,-55.1694,40.5108,-68.9470,-1.8639,21.1680,-62.6686,95.7053,130.2265,-32.1947,-95.3127,74.2799
-1593.7500,197.2223,155.4566,249.9932,99.0331,214.6978,29.9234,78.9978,-126.6548,-1020.1514,-92.2779,76.5323,-69.5064,33.9594,20.2070,-136.4737,95.0455,129.9455,-32.8908,-27.0220,73.5017
-1585.9375,1.6964,-39.0955,7.5621,-166.2085,-99.6617,-134.4048,-199.5573,-332.1579,797.4837,-188.0562,-19.0990,-89.7171,-59.8737,-1.4157,-47.9425,36.7264,322.0139,-17.2551,129.6203,89.0655
-1578.1250,112.6675,1.8457,123.6075,14.0210,125.4658,1.1537,26.3798,-33.2039,-410.5885,0.5949,133.7121,-120.4764,91.7245,4.3953,-151.9754,79.8471,-25.4543,-83.1769,98.7282,58.0708
-1570.3125,88.0933,-58.7584,133.0783,-47.3275,135.0170,-12.2664,35.7426,-95.8287,-253.0119,-63.3408,-4.0431,-110.7931,-10.2462,-59.3567,-69.5534,-21.5969,231.5618,32.3505,143.3050,67.5210
-1562.5000,-69.4926,-144.3818,-31.4814,-169.7053,-66.4442,-113.2008,-164.9246,-187.4767,868.3738,-81.3388,52.1640,-56.1658,45.7429,-4.1664,-51.1904,-39.0965,143.5034,-21.1829,90.8295,49.9063
-1554.6875,103.6967,27.7626,150.7150,107.6601,226.8492,62.6328,163.1576,-6.3844,-935.4576,-47.6159,123.1006,-57.7961,116.4556,-6.2431,-126.0759,-3.8650,35.2326,11.0404,52.1156,11.0369
-1546.8750,-130.3105,-102.2820,-98.2966,-93.1802,-60.0669,-72.6043,-121.9707,-254.5119,727.6224,-149.1131,-53.1622,-49.6329,-23.0367,-35.5313,-45.1659,-68.8466,326.7664,126.0569,97.2038,55.9647
-1539.0625,-107.6757,-7.6885,1.3285,141.6122,76.6523,47.2257,-60.4645,-83.0376,-128.8781,-14.0319,83.1774,-22.8701,77.0684,27.7637,-164.6656,-6.2393,68.9107,78.6727,-20.1070,8.4844
-1531.2500,-51.0493,12.9037,95.9417,196.3834,135.3472,101.5520,35.0204,-61.6016,-511.1994,-103.9930,-5.4977,-1.1096,-12.8384,-24.9560,-144.1569,-58.6409,230.1000,169.2898,34.5892,-6.9978
-1523.4375,-240.1510,-106.2436,-139.1671,-28.5754,-62.6769,-75.6311,-127.2180,-148.9101,1018.6296,-44.7220,-56.9094,-52.1006,-27.4861,-113.4311,-11.4039,-35.7924,146.5220,84.1373,55.5400,-21.2380
-1515.6250,-98.8896,35.9680,85.0968,146.8124,271.6669,92.0906,280.9114,184.1165,-780.2117,67.8572,56.0141,-48.7363,48.1974,-73.5665,-45.2996,-32.6104,-170.6652,13.3406,90.8559,-92.1294
-1507.8125,-244.4399,-109.6249,-31.4500,-139.6094,45.1919,-42.8149,128.2180,-5.6775,611.2967,-122.3878,-96.8677,-18.1733,-67.9243,-79.4989,22.0118,-149.2354,106.3562,113.7327,190.3701,-97.8201
-1500.0000,-146.6663,-47.8908,72.3337,-43.7055,148.0544,-20.8332,83.8626,60.8565,198.9135,-57.3352,79.5556,11.6833,108.2593,-14.1373,-132.3746,-119.5649,-183.3340,34.4129,41.1857,-142.2112
-1492.1875,39.2406,102.9797,228.2478,106.3190,304.0470,78.8336,128.6414,69.5147,-785.1535,-122.1619,51.1110,94.6800,42.5757,-5.6392,-197.5894,-147.7565,-68.8372,148.2504,15.1717,-133.4445
-1484.3750,-187.6462,-52.9518,-47.6291,-50.4521,-44.7443,-52.2088,-256.3669,-95.6166,925.9367,-103.7892,-4.1230,113.8641,-12.8926,-23.9374,-141.6116,-128.7468,21.8414,167.2811,34.3569,-114.4801
-1476.5625,17.1349,45.7764,130.1653,153.4354,317.1389,80.1054,141.2889,154.9016,-772.4058,-0.7969,136.2851,33.6945,127.2783,-67.5928,-184.9862,-98.0931,-232.8030,88.9712,26.2000,-157.8670
-1468.7500,-34.3565,-75.7649,1.6929,-109.9439,188.7510,-59.1566,159.6710,-47.8567,276.1785,-167.0803,-29.5601,-58.7207,35.2013,-159.5082,-56.6007,-190.6983,103.3185,213.4027,114.8016,-139.5003
-1460.9375,-74.2798,-116.7390,-38.1961,-45.7424,148.9536,-63.4174,119.6490,-14.0567,419.1336,-60.8313,77.1531,-98.5816,104.6841,-162.8758,-96.6702,-156.7549,-43.0240,206.3688,37.9584,-216.5839
-1453.1250,175.4861,133.9715,225.6064,204.1386,338.8510,69.8251,273.3237,139.4063,-1008.0785,-54.9219,83.5486,-54.7414,36.8508,-230.5558,-201.0205,-188.1234,-4.6277,210.0392,41.8254,-283.9588
-1445.3125,101.6446,130.0773,-38.1881,-82.5789,-34.8375,-139.8426,-27.5974,-88.7328,787.1281,-136.6207,-33.6467,-24.5080,-43.5674,-237.8408,-133.9633,-194.0962,97.1471,134.0955,107.0985,-253.9291
-1437.5000,423.8709,452.2424,76.0855,62.7540,153.5526,-51.4830,233.5701,136.1873,-679.7271,13.7140,43.2052,-57.2320,33.0597,-161.0771,-166.8488,-80.0277,-285.0277,-72.7980,111.4349,-249.8453
-1429.6875,606.1240,599.4481,-103.6193,-142.8993,-26.0404,-139.7954,164.7645,-6.8681,-87.3309,-129.9249,-172.9030,-52.9055,-183.2672,-120.2606,-51.6730,-112.9139,2.8589,3.3556,152.8311,-208.7030
-1421.8750,762.6526,755.9205,-233.0549,-164.2791,-229.3496,-234.3144,-38.7626,-63.6553,629.1573,-113.3167,-193.7509,-35.3312,-167.3315,-103.1979,-71.2579,-132.5458,-123.0333,-88.2464,61.4843,-265.3090
-1414.0625,1195.7089,1117.9230,2.0556,91.8700,5.8899,-138.0246,233.2653,61.0869,-1011.7172,-136.1882,-142.0731,-21.2132,-152.8638,-199.6041,-204.2758,-191.6353,-148.3340,-114.2851,0.7132,-361.3555
-1406.2500,1362.3278,1214.4978,-192.2415,-129.3904,-335.2677,-382.7801,-145.1011,-281.5675,744.0869,-295.4577,-189.7957,42.4990,-274.7901,-284.4206,-214.6804,-312.1241,52.9508,-89.7362,-80.4433,-371.7959
-1398.4375,1687.4020,1433.5265,-71.0638,124.8089,-177.9404,-270.5273,-134.9758,-86.7480,-533.8109,-211.2853,40.9290,89.6530,-117.2664,-236.7920,-351.6319,-302.1648,-255.3164,-187.7332,-213.1339,-434.7824
-1390.6250,1632.4935,1379.5671,-18.8545,105.0234,-162.5866,-244.3673,-156.8173,-145.9014,-554.4540,-308.0864,-54.3106,104.8447,-212.7005,-222.1144,-336.5149,-360.1655,6.4928,-101.6837,-127.7480,-419.7119
-1382.8125,1613.1964,1360.2063,-227.0181,-21.1542,-369.6036,-346.2857,-438.0264,-243.4285,562.3800,-296.2882,-78.9384,191.6231,-200.5240,-135.8273,-359.7960,-347.5694,-84.1249,-193.0461,-217.7556,-370.0426
-1375.0000,1564.7472,1381.6919,13.6705,246.5028,-55.7697,-105.6626,-234.3776,-40.1191,-1293.9038,-240.6613,14.2636,248.2447,-70.5147,-6.6972,-414.2186,-218.1355,-166.8580,-136.5418,-336.9005,-313.5184
-1367.1875,1271.9296,947.8225,-151.0097,-12.2034,-293.3020,-220.6614,-508.0993,-278.1671,344.5769,-332.3911,-113.8864,157.5197,-161.8545,13.0785,-246.9881,-198.0536,173.0544,-43.3868,-279.3913,-220.3404
-1359.3750,1039.1266,679.9698,7.3419,70.1175,-98.7928,-149.0405,-277.7912,-120.1988,-271.1255,-102.1309,79.9697,20.8017,31.8109,-14.1538,-236.7657,-40.9813,-131.0384,-137.2239,-266.8785,-173.1626
-1351.5625,951.1501,485.9486,94.5306,52.2621,25.5404,-97.4253,-42.6628,-107.4085,-660.7938,-89.0472,-17.3427,-39.0686,-28.6853,-111.5452,-186.6757,-27.0739,26.7526,-15.2006,-179.4985,-86.1287
-1343.7500,449.8322,231.5699,-101.6122,-97.9329,-242.4518,-156.1411,-237.8634,-191.9490,835.0996,-102.3122,-65.9883,-14.3026,-78.5154,-50.2913,-87.9413,-2.5119,54.1677,11.4611,-152.4589,-24.4461
-1335.9375,388.0751,274.7317,126.8068,191.4119,95.1199,64.3037,99.5123,35.0501,-996.4879,14.9493,14.9038,30.0017,2.1991,30.5059,-80.6489,41.5948,-113.8439,18.6779,-214.8472,-17.2094
-1328.1250,4.5408,-37.8852,-93.5435,-17.0183,-124.0757,-23.5052,26.1327,-148.7226,438.3362,-96.5508,-168.9547,-7.4484,-107.8338,-7.4458,103.9012,3.9458,171.3948,127.1386,-70.9751,56.2812
-1320.3125,-261.7338,-234.2363,-116.6206,31.8242,-38.9847,53.2789,149.0481,46.7759,267.2305,62.1923,-47.5558,-31.6449,50.3898,41.8577,42.6975,90.5415,-131.1424,34.8510,-22.8464,69.0219
-1312.5000,-276.3819,-247.9479,12.9366,122.2913,165.7309,179.2202,317.6041,176.8951,-742.0631,44.5597,-63.5262,-11.1919,33.2548,61.8051,26.1594,110.7739,-74.0039,55.2227,68.9389,89.4203
-1304.6875,-588.3325,-489.9637,-242.7996,-189.5418,-126.8453,16.9466,-12.1350,66.7195,987.3206,117.6359,-99.7740,-9.0442,33.8376,61.4457,174.3317,73.7077,-70.1967,23.2808,143.4222,163.5254
-1296.8750,-505.5721,-443.2882,-47.8148,-38.6797,215.2973,158.9671,291.8455,298.2444,-729.6730,274.3974,56.6768,1.7936,191.1260,108.7752,111.2174,158.3343,-375.6736,-70.9529,189.6212,174.3400
-1289.0625,-687.7451,-624.5480,-92.7482,-290.7483,60.5117,73.9390,247.8987,142.8545,218.6229,118.2488,-60.7773,-43.2746,36.5159,100.2054,177.2160,77.0575,-64.0396,62.9178,323.9352,203.2599
-1281.2500,-741.1086,-748.9994,-74.8504,-274.9933,5.5668,65.9255,154.7860,160.2919,567.5311,171.9017,-6.4213,-99.5496,88.7187,154.4436,158.0038,167.5805,-258.6330,9.5882,270.0591,183.9767
-1273.4375,-574.1936,-688.1661,133.3421,-73.9638,250.9065,238.1843,289.9630,295.0085,-841.1507,158.8359,-18.7794,-110.5327,41.2099,178.9731,109.1064,155.3939,-162.8963,103.5686,260.5025,209.0004
-1265.6250,-821.7418,-864.7975,-125.9158,-286.3903,-46.2029,103.2585,-79.3038,72.2831,957.7379,81.3226,-132.5730,-150.9727,-36.7359,175.0529,142.7629,79.7568,83.3653,243.0878,259.5047,242.5742
-1257.8125,-727.6281,-735.7794,84.4981,-17.1624,238.3610,273.0941,94.1196,319.2230,-595.8580,217.4505,40.2822,-159.7662,136.9694,238.7870,24.0690,105.7608,-210.7233,230.2678,212.1684,159.7975
-1250.0000,-814.5449,-787.7966,103.8819,-70.9755,147.8959,235.1642,76.5309,191.1417,-135.2573,51.5687,-86.8728,-104.5648,8.6707,184.5274,116.3920,50.7544,88.1934,283.4572,264.8491,142.0262
-1242.1875,-963.4033,-900.7599,21.3343,-149.7254,28.5159,127.5111,-40.9716,108.1421,739.2349,78.7496,13.0458,-76.3162,72.4398,138.3154,181.7687,78.7976,-23.8812,168.6899,221.5799,133.3047
-1234.3750,-751.8267,-654.2853,242.2311,95.9539,323.5770,259.8285,288.9761,254.5811,-879.7492,114.3662,49.4025,-76.6210,71.6529,63.5387,107.6134,41.2821,-59.4813,168.3876,186.7674,133.0398
-1226.5625,-904.5728,-737.1232,-30.1862,-127.6696,50.3284,84.2627,-20.3922,-55.2841,907.0417,-49.3119,-113.5293,-56.2261,-17.4209,47.4704,202.1634,-10.5314,244.5934,225.7850,174.6455,190.4767
-1218.7500,-694.1561,-562.8068,78.5663,115.8753,233.2615,189.8535,88.4228,90.0117,-270.1830,58.1536,31.6960,16.3177,90.6638,82.5600,90.8601,60.8025,-38.1898,153.3387,31.6778,153.0604
-1210.9375,-615.4734,-518.2213,123.5934,87.6885,205.4656,178.9280,133.5179,-11.4146,-371.9043,-81.0927,-32.7929,60.1580,-10.9568,52.9474,135.8740,-3.5764,216.3455,231.1966,40.0227,160.9462
-1203.1250,-758.7884,-661.6339,-62.3664,-19.4855,18.6942,49.0714,-89.3529,-161.8166,838.2620,-85.3229,72.7353,56.9909,94.4407,49.3405,169.8774,-6.9528,178.8394,158.0440,-32.6319,157.8298
-1195.3125,-496.5119,-470.4593,247.2748,239.9241,292.5236,212.7112,147.3902,36.3751,-1057.9597,-33.9633,235.8541,36.4203,220.4408,102.3318,75.4897,81.2580,17.9510,66.5036,-87.6750,137.3185
-1187.5000,-682.6201,-515.6588,49.5555,-16.0326,-16.0158,65.1599,-124.2300,-161.7929,508.5912,-122.9473,37.6371,22.4964,95.1094,86.9755,207.7642,103.1137,254.6958,91.6033,-62.0686,232.4582
-1179.6875,-699.0678,-356.2020,-6.4773,106.6790,39.1234,143.6988,-69.1665,76.7154,-134.3905,149.7308,164.0938,3.2201,185.4437,68.2770,115.6862,230.6116,-113.9364,39.3482,-78.8161,250.2459
-1171.8750,-557.1835,-284.4134,-41.1771,141.7123,77.5681,211.0538,79.2197,150.5435,-683.8438,224.7460,-17.1018,5.2965,41.1217,68.9334,116.9718,195.4488,-7.1971,144.4509,62.7872,215.3899
-1164.0625,-694.6373,-491.9702,-330.2078,-100.5942,-137.3296,48.8917,-99.7314,45.0359,1049.2672,154.4162,-86.6205,-63.9808,8.4723,72.2465,232.9028,125.9347,32.1550,42.1943,135.0343,183.1799
-1156.2500,-330.3944,-304.8412,-23.5204,14.7945,241.4870,113.8699,317.0447,204.2270,-666.9683,128.7805,71.5607,-125.5735,129.5258,11.2508,171.5439,101.1110,-167.7831,-122.3494,181.9965,158.6688
-1148.4375,-431.4456,-477.0019,-133.1115,-262.0931,60.0325,-32.9978,244.5626,-52.8367,584.7147,-55.0905,-74.5038,-161.4352,57.3364,-61.9917,208.9446,-7.9566,152.0085,-13.1447,326.7193,232.9102
-1140.6250,-572.0483,-511.7171,-131.2366,-192.5141,134.0627,8.6213,209.5779,22.5857,365.6606,18.5134,72.9001,-159.8560,204.6140,13.2249,173.7945,66.4258,-92.7946,-48.4822,291.8960,197.6018
-1132.8125,-444.7750,-348.5554,75.5073,-101.0661,305.9612,89.6886,417.4817,81.8900,-712.3478,-31.9842,-12.8042,-99.3784,117.7853,-0.6607,161.5547,89.6922,33.3163,-26.8898,348.9834,148.1966
-1125.0000,-661.8565,-530.7437,-151.1008,-318.9572,5.5101,-77.1618,154.0406,-108.1409,1083.2604,-39.8151,-92.8374,-106.2467,73.6215,-7.8931,264.9569,45.5985,97.0394,0.3612,307.7129,141.4305
-1117.1875,-442.5329,-417.5256,39.7068,-29.4341,270.4775,123.8876,419.0227,193.2384,-563.8425,76.7553,97.5345,-135.7121,191.8566,72.2773,88.7537,89.8899,-210.8395,-61.9687,174.8369,149.0560
-1109.3750,-529.1020,-504.1879,-90.3701,-187.7831,102.5666,74.2895,288.1234,97.7552,333.3824,-92.5143,-33.9456,-157.0323,96.2485,51.6084,140.7099,32.3244,54.4252,26.8632,229.1085,237.8304
-1101.5625,-568.8737,-509.0476,-171.6318,-228.3063,-50.5155,25.5982,170.0539,127.1135,731.2190,47.0462,32.3960,-127.5576,125.4586,116.7461,244.4592,134.5667,-196.5509,-154.5006,188.1728,267.3991
-1093.7500,-289.5696,-299.8226,10.1873,-125.7469,94.4812,113.5883,426.0680,271.5677,-667.7492,152.7151,-44.1666,-92.9833,49.7609,77.9797,242.3133,167.9020,-198.4118,-191.7483,221.3410,265.0662
-1085.9375,-429.4301,-439.7568,-248.1449,-336.3334,-274.6794,-78.7651,131.9257,12.8824,1281.1506,78.2574,-155.8531,-94.5608,-62.0687,-33.9263,278.0089,131.0867,13.5417,-191.1494,293.3384,300.5759
-1078.1250,-253.5199,-298.9366,-62.6994,-90.1521,-16.0684,47.6515,352.5561,196.9564,-115.3536,224.5576,-7.7682,-93.3875,85.8646,-34.0656,96.4402,167.0114,-303.7662,-226.7901,258.0667,264.8301
-1070.3125,-278.2382,-323.7388,-16.8702,-186.5938,-42.0913,39.9701,289.5421,97.4045,115.7188,86.2579,-145.2781,-83.8144,-51.7938,12.2033,178.2788,30.3252,-11.6649,-76.0174,303.1824,274.4852
-1062.5000,-425.4474,-366.0330,-95.5180,-264.5089,-158.5856,-40.3876,27.0386,17.3825,918.1187,78.4916,-41.2537,-16.7406,15.0728,78.9777,209.6057,24.1448,-89.1098,-118.7450,189.7776,231.6338
-1054.6875,-158.0730,-168.7368,185.4263,3.1667,159.5060,89.6633,235.1151,113.9564,-858.8483,65.3446,55.3710,7.9346,74.5377,29.3547,160.5443,83.5586,-137.9492,-97.8570,70.9711,182.3837
-1046.8750,-314.2675,-254.0029,21.7989,-224.7114,-113.9765,-114.7294,-76.3812,-234.0142,888.6942,-99.3191,-34.5287,27.0588,-15.5277,-24.8066,253.9294,30.4183,161.6267,-43.5171,20.6090,201.5778
-1039.0625,-148.5010,-124.3118,84.1390,9.3914,22.5138,21.4001,60.1009,12.9954,-187.0012,72.9947,101.5453,52.1332,46.3698,73.9913,133.2463,55.2248,-164.8744,-160.2166,-60.8122,154.7090
-1031.2500,-74.8240,-85.6917,87.3972,12.4287,-47.0882,63.9857,100.5034,51.9360,-367.5705,1.2651,-5.4288,55.1624,-96.7839,3.7495,136.5108,21.9752,48.5777,-86.9506,117.7075,157.7856
-1023.4375,-245.6059,-256.5266,-88.7830,-157.9643,-298.1197,-50.4622,-112.5223,-14.5438,962.2789,81.1176,-35.8180,61.7440,-90.3565,9.0732,106.3120,64.2785,18.5241,-152.1361,193.7608,127.4043
-1015.6250,-62.7012,-109.6781,176.7393,23.3365,41.5483,124.2673,190.1603,288.6778,-793.1954,199.6869,9.5038,71.0231,-9.2221,92.0961,4.8211,36.2716,-150.8310,-216.6015,199.5110,62.7211
-1007.8125,-268.1736,-208.1985,-3.1158,-216.7208,-247.1602,-19.1895,-61.5290,71.5527,792.0868,55.9405,-132.4958,37.9433,-114.4216,95.7736,156.9811,-33.0900,136.4295,-140.4103,170.8932,103.6828
-1000.0000,-138.0859,-184.1504,59.5945,-87.1945,-111.2988,10.3626,-36.6359,134.0165,265.7036,190.7801,2.0841,-46.5870,19.9493,121.0102,145.6798,102.1016,-155.8059,-186.6619,-16.1896,92.1853
-992.1875,21.4726,-164.6189,152.7751,-34.1840,-18.9819,68.1256,92.7245,78.9670,-376.0338,99.1352,-87.8235,-63.6198,-70.1766,175.7541,164.8876,120.7826,3.4624,-97.4005,-30.7790,111.1836
-984.3750,-211.4272,-292.5406,-166.4944,-232.6029,-302.1145,-75.5759,-152.3488,-93.5001,1252.6840,109.0864,-151.1421,-53.1027,-133.7196,187.0653,248.6252,131.0133,17.2226,-84.5924,-53.8389,158.7179
-976.5625,-61.1361,-72.2731,-45.5572,57.1841,-33.0475,108.5822,114.7963,210.2530,-575.4819,229.2610,-30.2451,29.6140,-13.0575,86.5897,149.5530,251.4352,-290.8243,-75.5655,-79.7024,132.4410
-968.7500,-167.2832,-107.4341,-232.0519,-153.4364,-219.4196,-23.8020,-70.4864,24.6117,599.0836,116.0721,-105.7273,-8.0731,-125.7856,-25.2723,184.0746,248.4566,-10.2936,29.0733,-9.9811,166.7527
-960.9375,-173.2212,-114.3795,-200.3210,-125.8128,-151.5619,-15.3050,-112.5439,129.2066,519.6296,220.1239,35.0230,-87.5567,14.7075,41.0748,141.7694,242.6767,-192.6127,-83.0764,-52.0845,124.2441
-953.1250,-33.4789,-80.6382,19.0927,12.5121,105.9677,118.8974,145.0774,239.4811,-657.0146,145.8876,-1.5162,-161.3361,-22.1008,78.1244,142.1568,132.5769,-53.2220,-14.5025,16.4914,87.4232
-945.3125,-307.0478,-283.1972,-192.7938,-189.4413,-142.8026,-19.2194,-103.6060,26.4757,1115.9945,-30.6114,-102.3118,-116.4138,-50.1816,85.8857,223.2297,-7.8258,94.8159,28.7741,59.7320,95.2867
-937.5000,-123.6586,-134.8056,1.2853,63.5751,198.3892,131.7298,163.6758,258.4381,-565.1854,52.8716,54.8685,-106.5426,106.7006,132.5982,123.2422,2.7156,-214.2151,-68.9731,32.9021,32.0852
-929.6875,-180.0593,-85.1999,-131.4169,-99.1748,-9.2077,20.9679,67.1793,50.6488,146.0417,-7.3589,-79.6788,-57.4265,-64.1542,72.5697,210.4971,15.5009,44.9876,15.5448,116.3081,45.1216
-921.8750,-211.5046,-82.6452,-237.1528,-130.9409,-149.8265,-48.9050,-38.3365,91.8564,630.0067,144.4150,-0.2325,-15.3678,14.9669,3.5054,178.6795,93.2391,-92.9163,-121.9822,49.6425,13.0888
-914.0625,20.7340,114.5986,7.7966,136.9914,57.2285,119.9275,170.8239,263.7612,-927.2728,94.9136,23.9316,119.3918,2.7915,-45.8480,55.5584,43.6613,-36.1172,-64.7917,-34.3414,-36.2554
-906.2500,-202.1438,-2.2538,-189.3652,-51.1515,-249.8391,-37.3365,-210.1477,-7.4137,860.3455,-29.6314,-62.9670,179.0559,-48.4613,-23.2831,115.3285,-44.0097,197.5243,-41.7026,-47.4706,-13.7122
-898.4375,22.4810,152.4242,44.9773,138.2499,-14.4060,54.3281,-85.6124,154.9482,-521.7246,132.3775,99.6613,157.2328,113.7937,27.7928,20.5744,80.8263,-106.3728,-169.0917,-173.1345,-35.6817
-890.6250,149.5613,103.5855,101.7822,-15.8504,-68.5254,-35.3259,-101.6199,-46.1944,-245.1430,4.9342,46.8063,102.9116,23.5538,11.3767,77.3115,100.1663,126.2138,-145.9615,-116.3253,20.8400
-882.8125,56.4877,10.5985,-34.5541,-179.0579,-203.7782,-184.9170,-236.7628,-218.4413,721.0931,88.4084,130.8535,40.4384,108.1999,21.8302,124.8733,147.3633,-37.4152,-203.9774,-139.7058,68.1942
-875.0000,226.7481,180.9444,107.4548,-9.9096,84.3031,-14.7537,87.4300,-41.3357,-1013.3246,156.2652,162.2750,-2.6881,138.2035,125.6443,7.7771,177.9010,-183.6979,-139.6212,-74.7555,61.8908
-867.1875,-8.7157,50.5690,-213.2537,-279.4519,-272.3444,-174.9498,-122.1005,-249.9166,798.6047,92.4738,-47.9602,-65.5186,-35.4666,99.7718,164.9633,150.7359,36.2729,-58.9550,75.4662,71.8740
-859.3750,100.8171,161.1974,-94.9427,-135.9520,-117.9679,-133.8225,33.3941,-58.4540,-39.6970,322.7338,71.8468,-57.3504,83.8841,33.9075,100.1298,159.5666,-240.7936,-160.2654,-26.3399,-30.1621
-851.5625,311.4566,300.9585,89.4837,-66.2992,-43.4872,-138.9116,32.9940,-131.8399,-333.7121,175.1848,-1.1721,-20.0292,-25.6090,-112.7981,63.4378,11.5321,3.2820,-55.4017,-63.0202,-67.0637
-843.7500,335.6424,360.2882,-68.5367,-148.0458,-237.4529,-280.3734,-270.8552,-362.6282,868.6573,17.2538,62.4097,-68.1519,-0.5236,-123.9380,52.2663,-35.9493,61.8387,-30.9836,-180.1956,-78.4401
-835.9375,784.5263,739.3276,220.1355,195.9345,123.2707,-116.3378,-57.0183,-258.6985,-1124.3407,-98.9337,167.7134,-0.5632,68.2649,-93.3686,-137.2301,-115.7414,-17.9168,-3.8369,-259.7004,-158.1366
-828.1250,797.5321,787.5044,15.9306,33.0777,-153.8901,-277.6532,-298.0649,-534.6119,325.8922,-265.9234,-35.7912,163.1789,-136.7705,-186.6362,-157.5985,-284.3830,347.4387,79.4735,-176.0969,-215.7038
-820.3125,953.1555,1048.2998,36.3496,188.8686,-133.4225,-233.3515,-203.4903,-404.8900,-132.5278,-208.2594,-51.6451,257.5175,-115.1786,-129.2860,-248.3962,-300.4233,114.3480,-46.6015,-197.9351,-342.6954
-812.5000,1229.0093,1395.3308,143.9999,288.9107,-25.7464,-193.8585,-21.7027,-406.9248,-907.5984,-395.3100,-164.2245,254.1035,-228.3324,-95.6831,-213.9582,-377.2311,248.5127,-51.3927,-203.5506,-419.4576
-804.6875,1151.8115,1282.3270,-45.4039,105.9481,-363.1197,-352.9335,-394.9681,-559.9734,740.1481,-400.3477,-205.8023,211.6439,-233.5051,-101.1165,-146.6092,-384.0953,311.5645,-58.2198,-246.2528,-462.3032
-796.8750,1386.2229,1447.9456,311.7915,411.6279,-4.8893,-185.9104,-110.6334,-238.3901,-1146.6537,-299.7451,-30.7515,201.7963,-96.0663,-221.9440,-303.6881,-357.3699,53.1898,-174.4179,-328.3890,-509.5789
-789.0625,1378.3611,1510.3120,153.7013,157.0713,-199.9476,-359.7979,-232.5990,-470.0513,-55.6159,-457.3435,-114.9098,116.7067,-217.8579,-344.0042,-205.0379,-405.9050,325.5310,-111.8478,-266.8171,-448.1312
-781.2500,1467.9664,1459.1486,25.0804,142.0246,-180.5320,-363.2600,-213.0945,-413.2169,72.6124,-474.4294,15.4357,-47.9276,-51.1676,-250.5922,-259.9815,-313.9877,62.2589,-197.8160,-283.8409,-429.2634
-773.4375,1737.5044,1376.9282,195.3876,234.9384,25.7966,-233.0271,-6.6692,-280.4317,-1193.1387,-488.5241,2.7561,11.3909,-28.5206,-228.2183,-274.9987,-292.1244,48.9266,-139.8129,-261.9519,-407.4669
-765.6250,1413.1785,947.8659,-109.1710,-52.9616,-278.7354,-346.2040,-348.1052,-363.4616,635.1987,-350.4007,-80.7263,110.8651,-111.6951,-201.6762,-211.8951,-339.1049,111.6806,-75.6618,-198.9559,-344.5473
-757.8125,1162.6119,802.5742,33.0221,154.9383,-26.5113,-102.3240,-58.7815,37.2918,-805.8901,-60.4760,63.5721,70.1009,-6.1118,-96.3752,-290.0654,-234.3385,-210.8441,-79.7381,-133.2477,-349.9030
-750.0000,657.9656,439.2291,-15.8788,2.7994,-111.3878,-137.1933,-70.5516,-47.9974,211.0996,-34.5483,-131.1513,-52.7047,-164.5697,-144.1147,-118.3095,-246.6285,93.5528,50.1556,65.3690,-362.3296
-742.1875,283.0339,240.6098,30.9266,-20.5762,-138.5457,-125.3318,-170.6119,36.4712,808.5398,13.1597,-47.1153,-42.8060,-117.2919,-97.1371,-145.9054,-163.2212,-71.4201,-43.2385,-29.3645,-316.0859
-734.3750,396.0400,283.9441,251.6598,164.0243,192.2174,115.6181,13.2438,257.9040,-995.0768,-23.1334,27.9022,-42.9538,-44.0567,12.7946,-329.5773,-53.8715,-134.4509,36.3549,-92.1845,-132.9155
-726.5625,75.0335,-71.7185,-165.6223,-120.3378,-188.0337,-2.2842,-329.9312,24.3624,792.2733,-109.3585,-21.0258,-92.1026,-56.7912,73.7378,-159.2804,6.4779,70.4609,136.9590,-28.0538,37.2267
-718.7500,14.7398,-61.6559,-117.1856,66.0558,7.4311,136.8131,-133.3877,258.5614,-336.9008,125.1765,139.7925,-43.5567,67.1961,196.3916,-184.3161,55.5184,-305.9708,43.2844,-53.2698,12.0395
-710.9375,-103.3353,-109.3508,-131.5350,17.7080,-80.9042,154.2276,-147.6264,245.0047,-132.6982,112.0105,-57.1044,126.2416,-94.5528,182.3097,-126.1232,3.7963,-111.1742,170.8814,-33.2757,-2.9237
-703.1250,-335.3109,-269.9298,-263.7764,-1.4742,-285.1263,130.1372,-390.7538,223.5944,800.3852,202.0185,-40.8377,215.1437,-79.1632,234.3471,-147.8667,18.1861,-167.3544,150.5858,-89.2363,11.1762
-695.3125,-190.8961,-196.1055,35.3713,213.7707,50.0347,308.0665,-128.5001,413.5970,-1036.1792,281.4749,112.8591,146.4547,37.6310,275.7969,-327.2385,95.9771,-200.1471,190.7180,-121.8318,-21.3520
-687.5000,-475.5014,-409.2878,-43.5028,36.0439,-174.8282,179.5037,-353.2839,78.6213,613.2728,-53.0036,-0.3937,68.7712,-3.5539,271.2634,-295.6383,54.7698,218.0070,293.8637,-90.4773,10.0918
-679.6875,-484.7890,-383.1461,204.9362,273.6873,35.6317,270.0282,-215.7588,179.9947,-354.2423,-24.1126,138.7041,95.3975,208.5824,226.0392,-342.7817,80.8531,-3.5880,180.3344,-134.8693,-0.1962
-671.8750,-418.0435,-421.9575,237.3901,270.4018,104.0969,277.2688,-110.2265,139.4196,-691.6088,-101.1188,98.8823,165.0742,93.7770,110.8649,-200.8938,2.9715,236.8530,246.8824,-36.2559,-5.4603
-664.0625,-555.4415,-593.8909,-50.3052,135.0296,-109.5851,136.7797,-359.8472,-36.2602,820.6896,-203.1936,181.9766,172.6025,138.8579,118.5533,-48.1972,-101.0581,239.0676,287.2865,-103.8514,-72.9074
-656.2500,-278.8363,-352.8029,278.9999,376.7030,257.7204,300.2495,-104.4790,184.0783,-1132.1237,-129.2101,292.1065,171.1364,211.9482,191.2542,-197.5268,-103.0974,21.2616,316.7192,-216.5021,-185.3799
-648.4375,-398.2076,-365.6625,80.3239,82.4574,58.0357,127.0268,-340.1073,-14.5226,284.1694,-32.1031,58.3291,82.7331,13.1087,176.0167,-213.8337,-82.0850,252.4619,375.2189,-125.1588,-164.8290
-640.6250,-352.9118,-319.8405,53.3159,128.9364,105.0181,139.6249,-257.0749,180.5825,-39.1666,200.7300,143.2552,55.9835,97.9463,112.4398,-204.5311,-35.4147,-90.7550,210.3881,-81.2266,-155.6598
-632.8125,-288.2929,-324.6735,190.6252,159.7887,279.3093,197.1140,64.2559,209.0470,-749.0834,8.9662,62.5614,9.5915,52.1374,-6.7809,-103.8964,-81.3943,42.3627,239.9418,88.0128,-92.1650
-625.0000,-668.6747,-564.4889,-62.0751,-79.3019,-10.4019,20.3555,-78.4257,-5.4441,1092.8536,-20.7173,32.9289,-21.8007,57.3631,-37.9874,46.7007,-77.3622,82.4053,212.5036,128.1980,-51.7025
-617.1875,-397.9451,-398.1818,77.3275,87.7620,238.9856,120.1871,244.9965,208.1949,-683.2808,377.7534,173.4393,-66.0843,160.7050,-9.0831,-108.6427,61.7671,-246.4814,167.1895,80.4406,-134.1716
-609.3750,-327.5900,-433.2195,-106.6552,-157.4979,54.9799,-6.6940,98.0265,99.4952,380.3214,342.9331,-8.3567,-65.7087,-22.2866,-45.5099,-72.3767,24.5325,34.2413,203.5425,79.2834,-135.0219
-601.5625,-352.5114,-386.5152,-59.9274,-109.9800,101.6888,21.8005,-3.2279,147.5492,424.3405,244.8905,77.6094,-55.6246,99.4534,75.7738,-174.4633,33.9915,-133.4102,109.6122,-18.2314,-126.2041
-593.7500,-202.5500,-305.9057,278.6644,41.4643,367.2578,160.6405,189.3864,193.5178,-931.7134,70.8022,87.4987,-47.6322,34.0977,157.9599,-203.6796,4.3404,49.8272,84.6170,-9.8745,-82.5145
-585.9375,-393.6048,-497.2902,39.2406,-218.0420,16.8155,-44.1729,-123.9985,-45.4706,923.1462,127.8004,34.4398,-29.6421,-57.2333,102.1572,-76.9324,22.6919,208.9981,35.6313,-26.5572,-28.8715
-578.1250,-318.2886,-386.2961,265.1777,103.8584,242.7386,132.6293,64.9900,182.9334,-692.8544,357.2072,189.7704,49.6994,96.8021,108.7188,-181.8764,101.3841,-69.5184,41.0121,-198.9374,-60.9215
-570.3125,-468.1281,-429.4391,180.9277,61.6319,121.4674,113.9114,-19.2233,26.1899,-191.9084,237.5212,33.9927,75.8907,13.7026,61.1393,-121.0014,52.9195,235.7881,244.2550,-174.5231,-36.1504
-562.5000,-503.2428,-427.8417,34.3767,-5.8182,48.9119,20.3054,-92.7364,-8.7996,504.4746,314.6128,73.9813,-33.2167,52.3385,26.2736,-84.4718,17.1649,58.7241,176.2075,-175.4707,-36.7147
-554.6875,-300.5560,-225.4312,244.6075,126.5695,333.1313,131.7004,229.5220,130.0246,-1053.3669,233.5531,102.8030,-79.5206,79.7771,-19.7843,-95.1739,43.2108,47.4512,167.9864,-117.6667,-47.5085
-546.8750,-566.9693,-350.1091,39.7179,-67.0992,54.2317,-43.5280,-13.3461,-183.2202,834.6403,31.4709,10.5789,-100.9194,23.1431,-40.9289,-7.0138,-14.8372,237.0079,219.6749,-69.0204,-33.4338
-539.0625,-302.6582,-191.0545,133.5372,129.0003,295.0463,48.3330,191.4927,58.2836,-398.9217,238.1527,144.1031,-116.6071,155.2312,-19.3619,-135.1931,41.8157,-204.7918,97.0900,-193.7257,-87.6885
-531.2500,-104.8730,-203.4990,115.8163,-24.3748,277.3145,-8.4158,173.7856,6.2908,-308.8918,224.3915,56.1649,-132.7826,28.8305,-36.2900,-79.9030,24.9551,25.8829,85.0326,-208.9774,-32.4675
-523.4375,-73.1246,-276.9577,-73.9467,-165.7254,51.5426,-147.0705,-161.9611,-143.7003,784.8553,258.6582,163.2390,-137.0059,98.4123,-41.2619,-86.7187,92.0408,-14.5647,47.9392,-319.3352,-2.3306
-515.6250,141.7765,10.7555,228.4292,228.1165,279.9042,66.9898,-7.5663,49.4758,-1123.3164,343.1335,248.4908,-93.0763,144.1458,-32.0924,-225.4201,63.2657,-81.8781,124.0288,-386.5832,-69.0732
-507.8125,-85.2856,-40.4719,27.8232,179.0490,-30.7139,-24.1747,-281.1585,-185.2748,511.5793,108.7270,123.8376,-109.0919,18.9488,-47.8525,-171.1088,-26.4599,215.8041,215.1773,-369.8304,-86.7971
-500.0000,320.4274,155.0873,11.9750,374.8100,63.4363,34.1964,-187.9899,-53.2199,-317.0627,96.1356,294.9844,-14.3515,151.5261,10.1586,-225.0952,-43.4348,-154.8170,94.0930,-565.3792,-140.8047
-492.1875,694.1241,388.6456,33.0949,363.6007,10.5458,22.2587,-129.8691,-67.1573,-850.6323,9.5924,172.1680,44.3976,63.1112,-77.8297,-168.1108,-95.4176,-65.4511,117.0399,-510.9797,-120.8390
-484.3750,401.5284,448.9227,-164.0889,144.1626,-332.6336,-127.3193,-399.0558,-187.3473,566.2994,36.8289,162.1159,68.8525,51.4357,-53.1088,-108.4736,-108.6918,-43.4603,36.7034,-453.9457,-98.2067
-476.5625,290.1833,619.4691,125.9778,421.0237,-43.5595,106.0537,-74.0034,102.7373,-1355.6617,146.3641,344.3549,101.5636,159.0266,52.8600,-261.6214,-76.7183,-263.2418,31.6527,-391.7037,-141.3532
-468.7500,28.0189,429.2186,-75.7882,303.1134,-318.3146,54.8498,-348.7867,-59.9712,-16.3747,21.1570,219.8399,194.4746,31.8468,73.0360,-243.5985,-94.5415,36.1338,158.8165,-339.3130,-123.3304
-460.9375,306.7867,462.9113,-151.6368,337.1757,-283.1451,54.9619,-313.6476,50.2695,-317.4768,169.9144,257.2780,267.2893,68.5919,35.1225,-319.7205,-23.4617,-251.6555,121.8907,-415.0769,-163.4421
-453.1250,515.4471,531.5152,-7.6217,302.1633,-103.1116,86.1095,-96.6434,86.4095,-1169.6216,134.6211,147.6344,265.0082,-42.7645,-40.8839,-360.9668,-26.4895,-115.5567,190.8909,-313.9756,-167.6796
-445.3125,215.5527,267.5936,-212.1744,74.6615,-343.6267,-63.9669,-410.1977,-115.9480,718.5415,43.8484,93.4885,171.1799,-98.6430,-23.4269,-272.8082,-83.0684,39.9233,209.3542,-265.4638,-152.5015
-437.5000,196.3149,285.3500,27.9243,410.8660,79.5136,137.7881,-172.0949,89.3964,-1106.8368,139.7800,300.0205,117.0005,106.1369,33.6851,-293.0440,-65.0020,-157.9742,191.4986,-322.3338,-208.7075
-429.6875,-109.3000,85.7542,-0.3652,212.7500,51.2662,28.8430,-236.3745,-83.5862,-182.4865,-30.5742,202.2365,127.4651,116.5779,-66.5526,-137.6671,-92.2872,131.7462,204.3119,-278.5898,-164.2944
-421.8750,-273.8377,-7.7579,44.4098,190.7598,59.0955,-26.4983,-191.5718,-36.4586,114.6312,54.1949,323.5576,135.9724,273.0978,-131.7455,-94.2901,-47.5216,-106.5531,-29.8114,-305.8437,-120.8631
-414.0625,-78.6334,83.4927,209.9079,248.5484,260.6486,74.6722,193.9603,94.4221,-1122.4830,39.7530,271.6574,117.2273,256.3741,-76.1886,-115.1803,-30.0114,-160.1149,-113.1588,-183.3933,-67.7044
-406.2500,-231.2361,-33.0355,-175.4194,-42.4115,-160.6113,-97.6017,-44.3227,-104.4700,878.5284,25.5699,73.0053,100.6924,92.8809,-19.4157,50.1018,-11.2939,-104.5435,-124.2984,-92.7978,23.6256
-398.4375,-2.4175,124.8705,-122.3428,223.0890,1.5416,62.6406,191.8090,134.0711,-618.2896,193.8432,203.7839,117.5699,147.7970,-2.2362,27.7514,78.8257,-441.6062,-141.0172,-183.8433,38.3259
-390.6250,-83.0594,82.3288,-172.7575,145.1602,-121.7954,15.6827,141.4526,-23.8307,-86.4600,37.7153,84.1358,104.0028,-47.7341,-87.5071,159.9275,27.4909,-103.1406,-44.1753,-126.3740,96.5517
-382.8125,-240.2285,-73.7313,-154.7131,97.7532,-176.6679,-62.2304,13.5666,-150.2213,662.5610,23.1084,141.9837,85.8834,46.2062,-68.3133,139.5114,-26.3866,-87.2981,-164.8803,-110.4933,113.1998
-375.0000,62.1959,17.8256,159.9057,225.9771,175.0358,42.5055,328.2589,-52.9865,-1012.8498,49.1445,203.4534,35.3653,68.7450,-82.5165,-24.3348,-41.6682,-68.8646,-212.9565,46.9614,96.4284
-367.1875,-33.0369,-146.2479,-160.1518,-76.4049,-108.9311,-132.0442,80.2674,-297.3735,868.0598,-83.4051,-2.6797,-26.7988,-66.3420,-71.3680,57.1346,-105.5932,148.8644,-130.6738,230.7209,104.9830
-359.3750,-44.7815,-50.8325,-95.7421,89.7332,65.5754,2.0550,292.7405,-9.2737,-248.8392,131.5441,101.6769,-71.5038,0.0384,-6.7706,10.0139,-42.0641,-216.9979,-174.9278,251.8838,20.9616
-351.5625,-261.9348,-125.8108,-28.7646,51.4902,97.6446,20.8947,360.7714,23.4171,-260.0348,168.1228,-45.3424,-149.6072,-149.9751,-119.5698,113.4775,-9.9377,19.7294,-74.5677,418.6059,-22.4767
-343.7500,-390.7671,-254.4568,-164.4880,-109.3865,-111.9767,-89.3198,187.1151,36.4530,958.8514,219.0648,-31.0112,-175.4088,-137.6556,-182.0580,122.2029,37.5017,-78.3159,-166.9087,356.5808,-13.6353
-335.9375,51.1062,13.6214,36.4719,89.4726,126.0882,82.4316,389.1522,278.2023,-977.6460,278.7455,101.0418,-119.5092,-43.6310,-88.8437,-8.3940,92.6498,-270.6742,-180.5253,162.2242,39.8899
-328.1250,-22.7314,-129.9859,-230.2984,-157.3392,-177.5701,-57.1425,12.4656,14.2626,588.1827,127.7734,22.4295,-128.3105,-125.2882,-61.3291,127.2853,10.1048,2.2271,-41.8387,155.1311,138.6936
-320.3125,-105.2333,-175.2549,-131.7539,10.2164,-5.9024,47.8916,73.1086,151.6671,-128.9641,229.1460,161.1531,-66.8105,48.3712,38.4920,76.2282,33.8614,-293.6203,-87.8435,34.3048,124.7712
-312.5000,-107.8006,-141.5719,11.7058,115.7339,99.6761,129.6848,179.6738,151.0232,-726.0625,157.4971,14.8352,4.6372,-63.0223,36.2619,71.1094,30.5627,-88.5243,-52.8817,99.4080,119.7815
-304.6875,-417.8066,-275.3179,-204.2911,-51.1496,-151.1904,-1.5550,-35.1983,48.9780,854.2330,167.4615,-12.8931,-26.3702,-55.8406,5.5893,111.5071,71.8174,-85.9464,-116.3715,137.0314,123.3185
-296.8750,-343.2046,-128.4428,21.3097,133.6043,147.5486,159.1436,337.5427,387.5578,-947.9972,361.0648,106.9904,-93.7711,97.9428,-24.4875,78.4804,151.6686,-365.7834,-180.2407,138.2301,90.4370
-289.0625,-510.8237,-294.7613,-156.3264,-101.8198,-139.9454,50.4988,159.0509,248.9432,448.6487,335.5099,-67.3035,-160.3693,-77.4604,-17.7606,229.2300,47.3318,-79.8495,-100.2970,213.1943,131.3380
-281.2500,-269.0163,-298.6450,-197.5492,-68.7790,-144.0064,67.1153,117.9886,321.7719,181.4269,446.4063,42.8393,-126.5656,-6.4436,125.3653,186.3409,42.4030,-334.5668,-173.9454,99.5244,88.6178
-273.4375,165.6332,-107.6784,-35.9528,19.1262,16.7559,116.6261,206.7581,302.4420,-876.8706,319.1669,24.8391,-111.9153,-63.5779,104.3349,89.2898,94.3192,-218.4298,-123.7187,109.6893,64.7335
-265.6250,-80.8112,-142.7978,-298.4640,-190.0260,-317.5736,-60.6941,-127.5712,81.0487,841.6279,245.8785,-11.2283,-78.3693,-101.7908,29.2052,157.1151,164.1455,-118.4519,-123.5944,139.7242,95.7276
-257.8125,-121.7910,64.5586,-46.5203,89.3143,7.5601,137.6479,159.5638,335.1427,-972.5974,392.0830,171.1675,-46.3840,41.4527,133.5234,-34.6312,195.4255,-373.0474,-197.0030,96.1927,88.1558
-250.0000,-217.5921,40.1118,-150.4173,-39.1435,-170.1423,60.1617,19.8680,161.4505,-163.5157,256.5297,34.7762,-75.2052,-60.1008,69.0513,42.8101,90.9098,-86.4684,-81.2056,206.8430,129.7735
-242.1875,21.6362,104.7012,-304.3050,-42.5457,-249.8154,-27.6776,-22.8045,157.8058,191.3136,367.0200,69.4156,-154.0297,46.3630,-9.4043,35.2238,122.3943,-377.9372,-121.4071,91.4643,85.3729
-234.3750,279.4655,223.9053,-105.6130,114.6670,-14.9081,94.4823,285.1016,321.7551,-1197.2188,349.1231,51.6585,-212.2524,62.4218,-67.2695,11.2275,63.4727,-404.7924,-36.9955,134.6703,24.5600
-226.5625,-169.9478,-83.1276,-283.1844,-156.3317,-265.2518,-56.5499,107.7510,111.4739,751.9551,214.0099,-47.3238,-204.7287,-38.7487,-59.3956,125.9592,-3.6906,-189.9328,-27.8373,244.6035,29.4807
-218.7500,-114.5270,7.6647,-41.9406,7.5120,13.2323,99.2860,350.2385,357.0171,-703.2765,314.7110,125.5071,-145.4071,57.8868,73.2730,-0.5324,55.9447,-490.2877,-76.8704,190.3242,-23.8127
-210.9375,-45.3161,44.2598,-115.9278,-94.8393,-61.5136,45.0330,238.4988,211.3458,-308.5786,208.2218,-18.8573,-72.2875,-87.6793,35.7440,-4.2344,54.3791,-178.8519,63.9089,150.8264,-27.3152
-203.1250,-104.4341,-49.4579,-288.2590,-80.4875,-196.5870,-15.3984,-80.5694,152.3655,506.5418,262.4274,71.4532,-60.5146,-0.5803,-25.1235,-68.3097,139.4798,-240.8288,76.3401,16.9483,-54.1821
-195.3125,2.7954,24.1799,80.7372,206.2279,173.6720,157.6964,105.7057,305.7390,-1335.9930,270.0053,151.1124,-57.3863,114.8587,-93.6467,-104.0433,142.9336,-208.4517,116.1402,-54.5842,-89.7062
-187.5000,-167.7321,-109.9279,-101.0432,38.2125,-81.8327,2.1992,-258.7874,-19.6191,386.7409,93.8612,11.0419,-54.0073,44.5679,-89.9225,42.4573,34.6442,38.1387,227.1928,-88.8890,-52.9912
-179.6875,65.0652,124.2963,-3.5010,274.5544,125.9941,96.9367,-124.9607,80.3584,-772.4647,160.0383,149.2891,7.6747,181.5873,8.0978,-44.7698,-14.3475,-293.9858,215.5608,-280.9161,-103.9914
-171.8750,121.9474,182.6195,19.1143,265.0011,222.8915,91.6689,-29.0709,-39.5749,-903.4459,-68.6793,30.6304,104.4565,59.7020,-41.7813,12.0969,-102.2439,-65.9976,310.0368,-193.8521,-119.9011
-164.0625,-205.3558,-2.2292,-142.4618,81.2882,61.6143,-1.8003,-152.3591,-87.6690,436.1966,-113.5697,20.7920,92.0343,47.6350,-17.8482,32.7430,-42.3295,-116.2588,229.3021,-137.9995,-99.0270
-156.2500,160.4489,224.0321,56.0560,275.6862,297.4400,157.1464,156.4683,224.3414,-1394.1049,17.6356,150.0464,34.7124,102.6597,-0.8179,-100.5065,10.6813,-351.4115,140.6720,-127.0448,-122.0593
-148.4375,156.9935,292.0421,-206.7048,-5.1631,-77.0076,-11.1073,-70.9652,38.1023,136.4254,-93.3948,39.0623,-80.8625,-11.5584,-43.0364,-72.0119,-69.5530,-112.8380,243.7855,-29.3438,-93.3470
-140.6250,127.7132,300.2248,-128.2953,180.1817,40.7243,70.8148,9.7894,195.0461,-489.1260,-8.2566,196.2405,-110.2885,180.3900,-72.1054,-104.3930,-25.6263,-321.1423,181.0515,-132.5005,-125.4908
-132.8125,131.8656,234.8519,57.5403,292.9697,188.8801,136.1247,157.9725,125.4279,-1120.1011,-74.6722,128.8549,-107.2675,110.7795,-104.7344,-68.3235,-24.2519,-75.9770,221.7791,-97.2042,-89.1838
-125.0000,0.9810,104.4497,-193.6658,59.7338,-61.9927,-30.5450,-128.8790,-48.2208,460.7543,-26.1189,66.4363,-100.2947,82.1339,-60.4073,9.6833,-17.9246,-70.9068,161.4497,-127.9710,-47.9320
-117.1875,257.0160,363.9669,-35.9756,320.4146,207.0440,147.0805,139.1841,187.0369,-1373.5796,101.3280,45.9097,-51.4171,170.3827,24.8176,-91.4147,68.3052,-344.9330,139.0310,-225.8392,-74.7812
-109.3750,126.4812,234.9246,-211.8721,159.5366,-115.4970,66.0417,-72.3171,14.7364,-86.3329,-32.7660,-162.1707,-6.0875,-2.9191,33.4916,-49.0648,38.9967,-22.5216,186.0554,-149.2523,-32.1791
-101.5625,30.8683,173.7993,-167.8572,275.5937,-145.1020,97.7271,-64.8653,62.3709,-160.4123,53.0604,-40.3435,38.1376,115.6909,79.0657,-80.8226,83.6012,-228.2428,55.9694,-213.7656,-26.6814
-93.7500,235.4920,275.9128,45.3825,344.8849,31.5190,177.2796,74.8332,168.2487,-1277.1294,52.1301,-42.2927,32.6021,75.5371,0.8800,-126.3162,114.4549,-133.6878,88.1360,-119.0110,-34.9277
-85.9375,96.2153,103.1315,-246.2849,69.2869,-295.7583,24.8243,-252.3495,28.2484,483.2140,60.3248,-109.1399,-0.8416,7.4942,40.7944,-125.7153,80.4260,4.9296,125.3807,-15.1539,-71.0726
-78.1250,247.8550,150.2641,-49.0491,293.6042,47.8803,232.2886,54.4043,412.1675,-1275.6654,226.4217,19.8963,-59.3877,96.3410,92.6071,-261.2169,131.3047,-270.5501,102.5237,-8.3835,-169.3132
-70.3125,128.3230,33.2332,-104.9995,108.7512,-43.6627,151.9583,36.9857,286.9271,-455.5263,67.3644,-178.2282,-76.0835,-28.9701,39.2670,-170.8595,76.0402,98.8232,89.5137,79.2431,-115.6959
-62.5000,121.8705,99.2748,-113.8818,70.9781,-126.1211,65.2016,-46.3546,206.7685,42.4651,62.3665,-110.2918,-11.7331,36.7833,66.9775,-146.4654,66.8400,-16.7834,-125.4615,-1.0808,-54.0277
-54.6875,374.5664,281.4648,146.3755,255.3415,135.5570,170.9664,252.4472,214.7433,-1358.3101,-74.4981,-101.2321,29.7656,6.6684,109.8255,-143.9158,-39.2089,19.7969,-118.2812,0.7561,-51.1979
-46.8750,175.4113,119.8070,-63.2261,-10.1404,-184.6153,-30.5399,5.3967,-101.1287,558.0845,-242.2104,-233.0221,41.4097,-54.2869,121.8198,12.7800,-100.0976,239.5102,-104.9602,8.7413,-42.2121
-39.0625,339.4830,214.3640,145.3930,192.5977,98.4453,64.8433,252.5775,75.2075,-821.4890,-137.7314,-55.6222,68.2438,82.9574,112.0125,-37.3209,-38.7776,-93.5645,-220.4394,-77.0646,-92.0213
-31.2500,332.7918,174.1530,98.2416,50.5613,87.7359,-10.2124,241.9832,-79.2318,-471.6320,-216.0228,-208.9901,58.3192,-34.5557,29.4432,59.8452,-48.2093,107.6363,-154.6754,53.3911,-30.5695
-23.4375,82.3688,31.2050,-57.6392,-127.2043,-30.6947,-92.1304,85.6624,-121.3949,468.3186,-146.0569,-177.1093,14.6417,-3.8092,59.1256,122.2583,16.6213,-6.9402,-157.6707,45.1003,32.1385
-15.6250,180.6891,96.0057,262.2210,10.7670,289.6199,64.8774,371.0939,93.1833,-1240.9426,-113.3650,-71.5148,5.7163,25.6631,50.5531,74.4282,44.2038,-53.7322,-163.9023,69.5805,57.6084
-7.8125,-26.2035,-110.4017,78.8660,-228.4709,32.7311,-90.2747,3.3134,-162.4424,516.6644,-255.8819,-178.1291,6.5863,-83.0609,-22.2233,145.4033,7.5973,228.2677,-88.3385,174.8688,128.8886
-4000.0000,-16.5094,-111.4502,97.5388,-129.4807,113.8305,-22.5580,63.0566,-48.5656,-0.5364,-114.3625,-144.0697,-5.3772,-16.7533,11.8657,62.3946,83.9455,95.9032,-160.5988,185.5477,140.0995
-3992.1875,69.3531,-132.5732,117.1517,-186.2395,170.7391,7.6065,192.3667,-31.5526,-240.3262,-208.7937,-276.7757,-24.5530,-147.2310,29.8006,80.6973,30.1177,290.4997,-111.6188,345.9323,123.4401
-3984.3750,-183.1430,-388.0621,-108.6074,-372.3821,-54.7366,-80.8824,39.2940,-76.9255,1113.7278,-218.6038,-286.8461,4.9310,-118.0691,132.3853,222.6700,-13.0651,178.7779,-157.9893,341.9715,118.4348
-3976.5625,-79.1083,-322.0342,78.1603,-130.0111,242.3175,105.0830,409.7521,143.2147,-722.8629,-72.9088,-213.4002,42.9162,-6.3955,207.4729,152.1455,25.2574,-32.4808,-126.8835,309.5049,48.9238
-3968.7500,-328.3127,-361.2550,-105.3211,-345.9142,-52.8866,-70.8774,187.9614,-115.9075,856.3538,-187.4874,-255.2164,40.6501,-118.9857,94.2991,187.3904,-47.6794,249.0379,-26.0337,310.7979,49.1693
-3960.9375,-239.9109,-168.8863,-10.2153,-155.2386,44.4914,-51.8222,173.7538,-22.4354,326.2736,-95.4753,20.5781,23.9814,84.0364,5.7242,63.2412,-27.0156,-48.8585,-81.5977,120.6829,-0.9808
-3953.1250,146.2351,-65.7933,101.6168,18.1469,193.5942,0.4074,212.2763,-97.2569,-482.2710,-281.7793,18.0811,61.0145,83.7637,-67.1513,101.7901,-134.6549,128.9410,20.5368,18.2625,1.5694
-3945.3125,104.7752,-180.3033,-124.1745,-97.1036,-33.9398,-155.3211,-124.8407,-363.7131,1017.7738,-365.7053,6.9714,52.4549,74.8706,-112.6337,204.7574,-178.9005,195.1711,81.0799,-54.7556,32.5244
-3937.5000,206.7417,59.6169,94.4481,177.0687,296.9342,17.8535,130.4514,-109.7510,-933.9030,-186.2230,148.2686,50.3055,183.3794,-114.7163,94.1143,-69.7418,-54.2220,39.0127,-90.3817,-4.1255
-3929.6875,-48.3191,49.5032,-23.9703,-79.8113,31.7572,-85.4484,-134.2988,-230.8478,196.3628,-198.8094,-10.5009,77.1120,25.8237,-87.8614,158.4326,-41.6418,186.3591,98.8930,9.9437,25.1760
-3921.8750,-82.7711,13.9809,-130.8069,-82.1181,-2.8482,-42.4764,-169.4725,-10.3652,197.3774,20.2016,97.3414,40.5130,98.8736,22.5888,87.3664,33.0651,-127.4724,-9.6424,-56.1414,28.0822
-3914.0625,63.0721,50.7371,-15.3706,25.8350,113.8164,76.0495,19.6327,139.3887,-826.5405,58.4636,63.4612,82.1654,66.1899,27.2874,56.5445,2.0237,-121.0832,27.0672,-12.9857,35.2416
-3906.2500,-236.2474,-215.6558,-253.1151,-206.3946,-234.7143,-78.4310,-145.4446,-65.0353,1176.5662,-37.4491,-33.5705,25.6780,-26.6571,7.8314,148.5906,-89.1807,1.1828,75.6424,77.0179,54.2544
-3898.4375,-110.6544,-91.1294,-42.9644,22.2875,49.6549,41.0650,285.3832,143.4513,-378.4844,96.5447,136.3166,-58.9031,108.4056,-40.7254,28.5388,-63.4836,-291.6772,24.1151,101.8987,-27.8421
-3890.6250,-86.0885,-139.6333,-124.8543,-167.0719,-68.0234,-54.9656,388.1607,21.8901,384.3473,-26.5246,-22.8548,-178.5324,-49.5996,-123.3338,56.4373,-144.8476,-20.5666,149.5615,234.7265,-71.9995
-3882.8125,-101.9802,-157.5938,-282.2173,-220.8991,-115.1819,-95.6720,339.4510,81.8648,887.8934,30.9463,35.5227,-191.6073,11.9336,-63.3910,45.8769,-119.6743,-280.8976,130.5706,152.0993,-155.6200
-3875.0000,85.5204,27.8211,-82.2016,-107.3507,196.0385,59.0677,577.1135,317.2199,-752.4095,6.7752,47.2714,-177.3216,-11.1732,-12.1027,25.6429,-103.1546,-302.9026,174.9304,131.8099,-211.9064
-3867.1875,-200.5260,-190.3125,-307.7498,-361.3726,-67.3160,-111.1128,240.1978,125.0021,1079.8717,-2.9679,-72.5347,-147.5866,-91.8428,-92.3725,129.8699,-146.2000,-95.4252,201.7502,164.9656,-179.7477
-3859.3750,-78.5149,-69.3746,-177.2497,-101.3340,137.3742,28.7624,370.3233,363.8395,-261.8009,234.3455,90.7373,-91.8013,36.5531,-73.5916,3.1428,-89.2023,-392.9243,109.6168,44.1473,-195.5474
-3851.5625,-39.7710,-32.7038,-213.0410,-100.5844,65.7772,32.7207,224.1697,252.3814,-114.8882,158.3536,-22.2776,-18.3164,-74.3553,-74.1184,78.1103,-125.5126,-141.7253,216.1993,16.0140,-119.6571
-3843.7500,-97.9200,-93.9366,-347.7631,-91.7601,-143.7619,-25.1739,-95.9216,114.0008,815.3164,165.4607,21.8171,-8.7360,-28.1643,-27.5611,52.1792,-77.7317,-199.4176,223.8947,-110.0392,-70.6740
-3835.9375,118.5747,85.4607,-81.8665,191.6909,123.3219,123.9466,170.6062,267.2438,-942.0525,243.1788,136.5377,-38.5606,15.6377,-57.3966,-49.1593,-69.3521,-261.5430,191.1886,-171.5181,-98.1071
-3828.1250,-103.7251,-33.9311,-239.7843,1.3311,-219.4239,-47.2865,-62.6837,-5.3375,809.8742,154.0756,-26.5439,-89.1802,-108.3780,-143.0343,48.7199,-154.7878,79.5595,211.6991,-109.8141,-72.3509
-3820.3125,-44.1214,94.6015,-63.8271,163.8741,-116.2908,30.7559,76.9135,131.9818,-81.2479,252.8765,146.2980,-23.8891,-7.4904,-42.7763,-31.4937,-126.3257,-246.4682,58.1064,-152.2382,-115.7086
-3812.5000,26.3213,162.9690,46.9378,160.2378,-78.3495,55.6302,114.3348,93.1199,-448.7190,102.4807,105.9550,12.2074,-45.8048,-43.7280,-30.9097,-163.0715,-69.7096,124.3286,-114.8818,-114.2785
-3804.6875,-84.1387,50.4378,-140.2344,-58.3153,-301.3605,-109.6690,-147.1879,-59.6634,908.1122,95.1831,135.7147,7.4077,22.9697,-85.5834,1.7775,-92.7272,-142.8404,116.6653,-116.4435,-116.7553
-3796.8750,231.8879,259.3903,121.0551,219.6127,33.0904,41.3785,224.7443,199.0237,-928.7503,205.3569,172.9656,-27.9391,61.2131,-193.9853,-104.1030,-52.9402,-352.5570,77.4551,-114.5944,-185.7984
-3789.0625,85.2839,145.7173,-142.3089,-0.1062,-231.1234,-87.2663,108.0005,43.0395,645.7673,84.8644,-58.4256,-71.9361,-131.1969,-274.0488,-0.6397,-169.8179,-76.8924,139.6257,23.5760,-154.5039
-3781.2500,46.2334,104.6148,-145.1391,97.7317,-196.8147,-0.7131,104.7635,185.5987,273.9233,187.9249,81.7644,-39.3842,-25.0452,-132.5669,-76.6380,-99.1536,-360.6919,61.3661,22.2584,-156.6772
-3773.4375,157.5633,212.9067,-28.6042,134.9579,-80.1364,78.4772,183.8961,262.5338,-529.7578,153.3437,84.3260,1.5253,-57.5422,-90.7423,-144.2973,-130.1465,-214.1665,98.4785,30.2635,-149.5219
-3765.6250,-63.3645,96.9559,-258.3596,-88.0830,-345.7559,-101.8632,-120.2616,30.1971,1114.4983,103.5050,107.6433,27.1917,-32.3005,-65.1722,-7.1998,-140.4097,-150.8764,51.3666,-11.0028,-121.6321
-3757.8125,134.4448,292.7391,-13.4133,212.6115,9.3270,60.4008,161.2752,235.5784,-737.6591,197.3751,238.7022,50.5613,100.6577,-78.8944,-19.4190,-78.9814,-373.9206,-0.0368,-127.6066,-133.0658
-3750.0000,-30.2623,231.0071,-76.0077,114.7706,-164.1573,-22.9803,-48.7556,-13.6035,301.6027,56.6773,62.2264,96.3843,-74.9448,-143.1703,27.8021,-143.1198,24.5139,148.0412,-148.7913,-85.0700
-3742.1875,13.4231,201.6845,-65.2204,154.3336,-153.2828,-17.8566,-222.4357,31.5975,384.4053,173.3813,142.1781,68.6145,7.8576,-61.0464,-108.5909,-95.8675,-177.6527,82.5405,-209.6119,-110.6994
-3734.3750,196.5945,242.8501,165.0403,194.3950,78.0656,76.0977,7.3532,112.2697,-856.5405,142.5445,148.6112,3.3049,-20.8779,57.5230,-172.5535,-86.1795,-133.3906,51.5109,-129.0203,-136.9096
-3726.5625,-73.3793,5.8812,-42.8784,-113.6902,-240.7844,-111.6600,-273.0490,-98.2274,957.5197,78.5423,83.9051,-21.1460,-46.7763,31.9282,-48.6648,-73.6697,55.7433,25.3632,-44.6077,-123.2913
-3718.7500,215.5850,116.8651,188.0886,172.1621,27.2478,31.6712,-44.5698,130.1912,-688.5843,194.4600,237.1453,-13.7001,108.2396,-32.7654,-149.8949,8.7350,-218.2649,-40.8704,-175.3477,-149.7994
-3710.9375,283.0482,112.3561,111.5054,130.4913,-123.2852,-22.1427,-195.6487,-59.9368,-68.3211,39.8279,82.8506,18.1994,-44.3041,-75.0125,-79.6951,-68.4245,62.1857,58.3750,-140.6772,-115.8815
-3703.1250,177.8191,145.1749,1.1901,127.1254,-233.5730,-68.6899,-378.4791,-61.7885,556.4082,110.4925,153.8791,17.4142,64.4500,-38.9631,-116.2087,-105.3065,-113.0591,-15.0500,-209.7546,-114.6885
-3695.3125,281.3918,247.8050,260.6389,263.5631,98.9075,74.2708,-83.5537,84.1285,-1061.3119,106.9195,224.6928,17.3864,100.9634,-3.1636,-151.9905,-141.4498,-113.5873,50.2976,-173.1354,-149.7791
-3687.5000,-97.2777,-62.7974,11.8119,-12.2465,-148.8987,-70.2309,-331.9120,-130.2249,748.8390,39.0853,120.2644,-11.8926,-2.7875,41.3777,3.9820,-132.8590,141.6527,91.4260,-127.7944,-140.1391
-3679.6875,110.5133,107.0749,83.4116,226.4151,33.7345,74.7735,-150.8396,123.8816,-540.5593,143.7209,262.3287,22.2767,104.9276,112.3719,-144.6080,-24.8235,-177.6957,-21.9793,-235.0476,-178.0657
-3671.8750,276.5271,307.1849,0.2087,214.3112,-123.4339,44.1032,-161.5697,0.2038,-440.8845,19.5706,101.6221,84.6494,-18.1552,63.5665,-155.0134,-71.5997,95.1517,35.8559,-207.1447,-150.8119
-3664.0625,201.1296,334.9066,-188.4325,170.8087,-348.0544,-51.7512,-386.7530,-116.8970,619.5740,11.0271,93.5413,151.6294,-24.6436,57.3579,-122.8231,-76.7878,20.5983,27.3250,-316.6864,-154.9819
-3656.2500,367.9140,429.8225,97.0871,404.4982,-26.5166,116.5262,-65.7791,56.1749,-1191.9843,35.6517,154.6631,178.7619,39.0387,47.2989,-131.5076,-49.8271,-93.8522,50.9702,-324.1322,-163.0313
-3648.4375,118.0604,178.1133,-92.0618,152.5380,-252.6570,-30.4025,-291.4845,-172.4207,565.8867,-120.3801,-0.8526,98.2332,-78.9407,-33.4120,9.1499,-92.5349,221.0688,150.0095,-255.2617,-94.7507
-3640.6250,164.4152,292.6259,-6.0326,370.7979,-92.6291,59.0455,-243.0189,-14.8099,-303.9927,34.8100,155.8724,109.9016,42.2919,-58.9202,-125.0159,-7.0530,-14.8364,51.2719,-312.2362,-118.2974
-3632.8125,171.7076,368.0860,112.9013,375.0074,-48.6982,106.0718,-162.6436,-9.2807,-739.1371,1.9148,49.5309,79.4747,-98.5709,-52.5334,-154.3094,0.3144,205.1462,126.4726,-269.3531,-109.9760
-3625.0000,-25.4050,205.1632,-94.6088,175.8216,-365.2246,-12.3515,-405.7264,-145.1735,745.5049,122.6173,23.8137,91.6621,-195.8387,69.4544,-177.0136,50.2578,114.7372,102.3146,-287.9141,-59.0812
-3617.1875,179.6598,338.4474,84.0328,342.8461,-113.5969,179.0446,-155.6719,178.1080,-1063.8546,297.4949,88.2940,122.0100,-130.9385,173.5929,-329.5949,192.3382,-137.5627,58.3330,-327.3852,-64.0713
-3609.3750,61.8933,182.9196,-114.1873,45.0434,-383.8437,22.6578,-352.4931,-59.4685,355.9488,95.5155,-39.0527,106.5089,-181.8951,157.8690,-160.0358,103.5421,167.3082,148.5459,-232.7387,-40.9407
-3601.5625,176.9808,155.2654,-63.5883,122.1106,-188.2725,14.1122,-266.5014,-11.1945,-0.2985,104.3954,118.4863,7.8594,-23.9881,95.9870,-147.6477,79.5738,-33.9943,48.6396,-223.2856,-100.9931
-3593.7500,286.5599,158.1156,163.4615,228.6828,76.7645,76.5734,-41.0452,-7.4452,-950.2911,-39.2559,85.5162,-23.3298,-19.6244,-45.4520,-103.8379,12.0419,183.1225,121.2229,-146.4365,-130.6318
-3585.9375,-30.0147,-20.1522,16.3181,49.1154,-181.4113,-86.4333,-297.7954,-193.8640,814.7424,-80.0506,82.4131,-60.6556,15.5799,-121.0411,-67.1883,11.3378,288.0952,117.6960,-180.7885,-130.4504
-3578.1250,132.5898,211.7803,371.3199,279.7457,136.5499,40.2835,-55.4097,11.8917,-928.1771,50.3349,287.5118,-74.8259,147.9516,-61.4688,-117.4149,34.7765,29.1670,-39.6636,-299.0463,-143.1534
-3570.3125,47.9650,195.5016,242.0578,51.1478,-102.7565,-60.1902,-220.2889,-191.6017,155.6183,-117.5228,118.3887,-58.2417,-18.9292,28.8449,11.0965,15.9496,296.9929,13.7740,-311.5959,-51.1340
-3562.5000,28.6892,175.5900,75.1009,64.9112,-195.7574,-47.8635,-314.8674,-140.7553,355.9046,4.9889,169.6482,31.6938,69.5456,117.5043,-46.0458,68.4654,67.1472,-7.4014,-363.8480,-33.7921
-3554.6875,167.2529,242.5254,184.9419,235.5313,24.0558,106.7409,-95.6369,3.9204,-1006.2059,1.3286,129.7567,103.4345,30.8305,78.9677,-120.4190,30.7704,101.0648,128.2571,-259.3490,-70.6815
-3546.8750,-41.8361,-4.1653,-106.9057,-11.4945,-194.8340,-44.7705,-424.0947,-180.0759,834.1802,-109.9817,18.2358,67.5293,-41.5450,42.7799,-44.4552,-40.5985,279.3500,197.3104,-187.5386,-68.2457
-3539.0625,98.6885,64.7916,115.8330,196.1228,137.8638,107.6278,-129.9699,76.5466,-709.8931,-1.6659,201.3687,31.2261,68.6980,117.1972,-153.9181,-39.3773,-72.8122,123.9955,-257.1915,-103.2445
-3531.2500,33.2352,-3.2058,44.5673,21.7816,30.5511,30.5350,-127.8561,-69.8216,-157.0609,-76.3337,17.5303,-3.0693,-40.0617,81.6096,-40.3985,-111.1723,178.0161,195.7293,-110.8914,-63.2766
-3523.4375,-30.5242,-32.4814,-132.0437,-43.8452,-109.1166,-66.9487,-194.0904,-138.5054,622.6475,1.7175,96.4187,-33.6668,38.8739,50.7192,-70.1907,-30.2851,9.5333,130.2032,-173.9398,-55.6399
-3515.6250,163.5537,125.0970,70.1492,182.3861,167.0255,49.7838,80.4847,-48.3551,-941.0374,16.5991,186.1563,-16.4595,129.6273,31.6214,-89.2191,-12.6128,-42.1918,74.5164,-224.2379,-37.2395
-3507.8125,-80.7096,20.3550,-114.0414,-64.7208,-238.2290,-126.5032,-251.3256,-270.5654,896.0340,-96.8642,72.5638,55.3999,17.0189,-44.8365,94.3829,-51.3156,171.7478,74.5322,-221.9189,35.7799
-3500.0000,27.8803,197.4947,72.5906,111.0587,-125.6545,-10.5555,-175.3108,-50.9023,-278.0435,85.5540,219.8706,57.1103,165.2747,67.5637,59.8060,61.8207,-177.5125,-31.5691,-359.8028,38.6129
-3492.1875,109.9989,208.1846,45.7181,49.3826,-114.5814,-15.3798,-165.7975,-114.7192,-268.7606,-16.5075,153.7114,29.3252,64.0329,76.4643,69.7078,71.4462,45.7102,12.8702,-312.2318,85.9132
-3484.3750,19.5596,45.3493,-196.7552,-78.8393,-284.1174,-115.8729,-372.8931,-212.1044,848.1598,-79.1094,203.0289,42.9950,151.2440,52.8198,84.0503,85.5076,24.3814,-10.2028,-332.2661,100.6353
-3476.5625,296.2598,144.6716,57.8710,195.1021,43.4536,76.9081,-45.8855,2.6354,-993.9966,-11.5857,272.5004,39.7700,146.5737,86.2805,-65.5436,45.6593,-118.8942,18.8580,-336.2599,61.4175
-3468.7500,59.2689,-23.6712,-118.2275,-43.6264,-206.7037,-58.2161,-295.6061,-211.3433,667.2086,-43.7641,19.2900,-63.1547,-66.8096,92.0339,51.1444,-20.9153,170.1496,95.2746,-220.9950,105.4667
-3460.9375,-67.9240,24.8136,-30.5581,72.4828,-81.0928,32.5477,-133.5620,21.4795,-53.7339,151.8795,106.9253,-122.2788,19.6217,106.5925,29.6110,67.2962,-132.0424,0.5328,-206.9854,84.2795
-3453.1250,-39.7948,86.6432,-0.5871,97.9516,21.8284,75.5229,41.7850,86.6265,-539.5511,67.8407,23.9015,-57.0953,-61.6373,-48.5447,96.3551,22.7930,1.0396,97.1392,-107.7282,77.3550
-3445.3125,-122.4744,2.6940,-306.4584,-58.3654,-248.1073,-87.8161,-191.7246,-39.0463,1029.0045,52.0146,46.1055,39.2980,-75.6955,-172.4907,120.2870,9.4697,-46.6798,81.9967,-156.3204,64.5995
-3437.5000,195.4758,248.4050,-120.7351,221.9821,48.5529,76.3252,67.3585,145.9103,-808.9931,125.8273,119.9668,41.2960,35.8649,-97.8353,11.7780,85.7408,-255.8506,45.4890,-260.3746,30.4079
-3429.6875,30.9386,82.6629,-294.5271,-51.1409,-199.3123,-32.4793,-144.0792,-66.6326,523.5071,-14.8503,-56.6482,12.7922,-102.0813,-16.6884,94.7411,57.4964,106.4881,124.5327,-143.9700,76.6856
-3421.8750,2.1982,17.7370,-250.5584,23.5573,-118.4192,0.2816,-173.7538,12.6283,236.9222,137.2970,133.5754,-16.9219,50.7804,64.2607,-45.5167,65.0399,-132.4015,23.4159,-136.8146,47.7283
-3414.0625,169.6885,43.0541,-2.3888,82.5152,56.6923,78.1917,36.7870,112.1220,-802.6492,88.6752,160.0310,-26.4375,40.8515,17.4098,-90.6016,18.7652,-37.1222,12.5436,-41.5101,38.9335
-3406.2500,-1.6849,-94.4618,-183.1189,-161.3687,-308.0972,-110.2180,-254.5642,-106.2478,1002.1039,14.2151,123.6490,-24.8005,5.0588,18.7091,58.4520,20.6185,38.3170,-56.1225,-72.0983,78.2594
-3398.4375,92.4032,210.5220,62.5865,106.2573,-26.4448,39.1773,-10.4798,63.8583,-738.7929,111.2407,221.7679,74.2969,139.7337,80.4589,-27.0788,82.9119,-253.8430,-104.3009,-188.2973,66.9985
-3390.6250,-3.2979,219.7514,-39.5192,8.1245,-201.6084,-46.1699,-186.2138,-149.8331,224.4559,-66.5213,44.1141,118.6005,-0.3976,13.4049,17.5632,53.3915,72.2026,-26.2199,-143.3386,111.9006
-3382.8125,18.3820,168.4004,-90.2664,26.4187,-252.4180,-76.9724,-237.5921,-92.1288,504.2496,25.1377,137.8954,66.3069,94.8770,-38.2522,-33.4173,149.2542,-118.3712,-147.6973,-158.0245,97.1666
-3375.0000,207.9921,216.9962,107.8930,143.6710,18.6862,49.8185,69.9452,67.5155,-879.2596,74.7275,78.6171,-30.0862,109.0670,11.9931,-55.5304,200.0054,-104.0893,-171.2355,-108.8568,75.2941
-3367.1875,-112.5070,-35.4933,-156.0936,-179.1687,-318.3517,-112.9921,-157.6537,-86.9484,989.2672,65.2305,-40.7427,-72.5851,-9.8532,41.1346,121.2450,192.6357,30.0983,-177.8215,-9.8215,105.2930
-3359.3750,-64.0486,14.0021,-31.1580,7.9851,-46.4443,62.9349,114.6795,257.5596,-466.3101,225.7232,84.8994,-58.1334,79.2040,56.2212,99.9425,171.2094,-270.8152,-200.4215,-30.8917,84.2084
-3351.5625,-137.9208,-27.8132,-72.5838,-34.1667,-87.8857,43.2580,71.6539,66.7327,-68.3461,33.8796,-69.7754,45.9737,-74.0834,12.9616,94.2630,18.4162,74.9189,3.6800,69.6455,78.7415
-3343.7500,-164.5157,-18.3165,-133.7529,8.9953,-185.0732,-19.9439,-137.1233,-69.8102,642.0888,7.3531,-58.1180,94.3852,-63.0663,-11.9948,-4.1323,-6.0984,48.9468,46.1249,-26.5635,17.5458
-3335.9375,166.1167,170.4311,142.2844,267.4256,162.9547,132.3619,101.3053,94.8761,-1068.4673,-49.9378,-4.2103,75.9963,-81.8339,-67.7569,-133.3598,11.5764,63.1335,93.8116,-83.6271,-74.4872
-3328.1250,-49.7007,-11.2476,-47.1580,-21.5641,-99.5112,-55.6345,-162.7499,-169.9059,727.6329,-168.6673,-83.7389,-3.8408,-125.0687,-73.9759,-65.0514,-67.2182,303.8839,157.1001,-19.1805,-80.0007
-3320.3125,11.6334,14.2484,91.5223,142.6355,149.1471,46.8902,49.3254,41.4772,-384.0961,-32.2175,89.9213,-12.5274,86.8625,-47.0379,-147.6199,-75.8680,-23.2593,75.5662,-64.6285,-125.3998
-3312.5000,79.4367,11.2293,123.6519,138.3236,181.2641,40.0465,80.8698,-38.6676,-425.5032,-149.2929,-25.9387,56.2354,7.2513,-88.6553,-78.7620,-155.0813,185.0253,71.5200,2.3403,-93.3812
-3304.6875,-46.7989,-80.7798,-83.2636,46.0110,-61.6660,-82.4885,-126.6259,-172.8226,801.2866,-100.3487,-49.7789,32.9876,20.6419,-112.2724,45.0861,-141.3136,129.3084,14.5204,-18.7251,-79.3925
-3296.8750,28.4757,169.7556,142.3203,294.2580,237.9174,91.4770,209.3870,125.5605,-1032.6003,50.1404,28.9254,38.2390,25.5519,-181.3829,-23.6005,-26.0549,-77.9604,-17.9385,-15.3443,-110.9392
-3289.0625,-179.8368,-4.2805,-39.7198,-21.0620,-92.1290,-48.1251,-11.2304,-21.6614,585.9510,-23.9613,-117.9504,1.8882,-84.1470,-181.0998,14.0970,11.5823,136.1815,54.0534,58.4013,-73.1139
-3281.2500,-47.6990,-48.8549,23.6530,3.0960,82.2439,-4.6163,126.5750,115.5763,-48.9894,74.4226,128.6695,-8.0159,89.6215,-43.3700,-142.7762,38.6589,-225.2653,-62.4739,-22.4385,-82.8714
-3273.4375,84.3566,11.5106,159.9272,-7.7932,217.5287,17.6650,187.3074,28.7501,-649.2057,-12.2623,117.2183,-56.0203,77.2949,-18.7444,-154.7705,-83.3796,-23.8404,67.9356,37.5900,-57.7618
-3265.6250,-133.4268,-135.9221,-68.6561,-192.4787,-11.0296,-125.3494,-151.7952,-200.8829,887.9661,-58.7322,71.9754,-63.8220,69.1569,9.0800,-51.5744,-128.2336,109.7855,129.5961,65.7988,-65.4778
-3257.8125,103.2421,-4.8771,145.2050,113.3387,313.8716,78.7164,172.5658,85.9714,-958.5469,6.2919,64.2228,-71.1773,62.4822,2.3588,-58.9673,-97.6396,-76.1845,119.7399,55.4216,-145.7751
-3250.0000,-92.9370,-131.6621,-99.8006,-84.6675,68.9134,-0.2345,37.0676,23.9746,377.0897,-20.5171,-218.3676,-95.3829,-147.0527,-23.2200,26.7662,-85.9092,114.0053,132.0813,210.1741,-96.9497
-3242.1875,-162.9351,-96.2373,-138.6520,-85.4530,-6.8791,30.9297,71.7321,242.1866,265.0421,160.9087,-72.7284,-97.3864,-38.3804,48.4037,-11.3212,22.0142,-236.6335,-44.3466,139.0910,-61.9526
-3234.3750,89.5895,48.7236,11.9990,-11.6874,69.8504,101.0997,257.9191,280.9402,-798.6991,161.8747,-70.5628,-57.8907,-73.1994,87.5272,-45.9397,61.4319,-162.8073,-75.2360,143.4744,-22.4861
-3226.5625,-84.5076,-54.9128,-209.9936,-256.5226,-262.0635,-115.8464,-38.5248,-52.9147,1038.1312,85.2581,-72.9869,-23.0034,-75.6290,49.0469,-11.1655,60.2251,-20.5706,-74.6828,109.2446,49.3585
-3218.7500,130.1515,89.2274,-24.2457,-8.5699,34.7753,29.0365,221.7891,133.0100,-687.3690,196.4274,76.3832,-20.3796,74.7108,14.3158,-81.6682,135.7666,-262.6340,-72.3501,41.7329,51.9230
-3210.9375,48.5618,-28.8615,-147.7542,-162.8343,-53.6417,-35.3924,59.8602,-66.3021,142.8334,33.3660,-121.4778,-71.0092,-123.2045,36.3208,124.5547,11.0475,41.0496,125.7792,98.9465,74.2103
-3203.1250,-125.0108,-131.8988,-181.2577,-127.0310,-13.0532,-38.0962,-48.0499,-63.5668,477.2375,72.3816,-82.2745,-68.5887,-11.0713,112.3849,90.8115,14.3680,-98.2415,56.9971,30.1831,40.5249
-3195.3125,-44.0323,-16.3545,-24.2118,57.3815,292.1049,139.9963,220.6155,130.7606,-946.0083,7.9836,-71.4904,-57.6203,-0.3765,160.0100,-83.4037,-11.7661,-89.0211,101.7969,73.9410,14.3612
-3187.5000,-258.4685,-195.2134,-321.5980,-158.5999,-6.1723,-22.8131,-42.1444,-58.3252,888.4861,-71.8061,-186.1003,-99.0553,-79.0944,81.2297,-14.0219,20.6828,47.8162,132.2349,140.2820,9.7763
-3179.6875,-90.9978,-29.1507,-218.1046,78.3538,171.4427,113.4601,208.9942,266.5148,-515.1525,142.3436,-45.7739,-67.5939,25.1060,38.3517,-93.7581,125.0266,-277.5001,17.5877,60.4920,-69.9329
-3171.8750,-107.5645,-11.0999,-236.6714,24.2942,42.0063,85.9287,189.0919,172.3328,-130.9582,47.4693,-175.4827,-50.1880,-104.7466,18.4162,-39.5638,-4.6862,-13.8733,69.9290,147.6316,-52.7139
-3164.0625,-234.8628,-68.7446,-298.9900,-69.4581,-93.1771,0.3379,-19.5545,73.4487,727.7113,20.9257,-89.8770,-38.4871,-19.3056,66.7817,-28.0879,-30.1046,-71.9561,10.6090,124.0526,-41.2153
-3156.2500,-19.9956,41.7902,36.8476,109.9900,206.8085,126.9565,205.9751,188.7513,-995.6505,62.5665,-11.0918,3.3662,22.2983,35.3060,-133.4879,48.6217,-102.9361,15.4616,162.5982,-72.5946
-3148.4375,-138.8388,-148.3799,-163.0393,-186.2524,-65.9334,-76.1362,-30.2078,-84.6602,790.3965,-27.4821,-100.0016,24.5214,-66.8126,19.1191,-75.5944,32.6306,94.4003,0.6510,218.4269,-51.6899
-3140.6250,-2.7539,-47.5983,-58.0000,-16.5174,149.2635,9.4907,147.5402,92.8915,-244.5733,112.4578,78.0670,18.6291,148.0428,49.8831,-118.7719,26.5886,-298.3559,-40.1843,72.1788,-57.8579
-3132.8125,15.3780,40.2611,-42.9138,0.3103,201.5281,42.7553,199.3631,70.5235,-450.6339,16.4754,-16.8012,-39.2178,51.9503,-8.2969,-29.9191,-31.4148,-106.0814,118.0667,87.9632,-6.0009
-3125.0000,-263.8849,-63.2364,-188.2239,-140.2187,18.4014,-64.0594,-21.1897,-39.1963,874.1519,-20.8419,-16.0119,-112.4240,52.5010,-7.8298,80.5832,-30.7802,-70.1581,118.9993,88.3880,-5.5115
-3117.1875,-44.9986,85.4308,113.6172,148.4470,394.4429,100.7104,281.4376,153.2759,-956.0635,60.0337,102.9625,-140.4853,135.2228,0.7775,-20.7872,-21.9950,-202.1335,56.1020,24.9399,-33.8961
-3109.3750,-115.7711,-56.5534,-75.2100,-64.5269,95.8173,-41.3370,-17.5861,-109.9034,584.1202,-128.7256,-11.7104,-71.2026,20.2838,-41.2761,48.1850,-63.8714,112.2514,125.5923,58.8380,35.0528
-3101.5625,42.8404,-3.1393,-56.6622,92.9207,114.5677,39.4268,-73.2212,19.3243,-23.2136,-1.0459,117.0349,58.4708,148.7541,51.0718,-81.4567,-8.3505,-151.0043,36.4974,-29.8844,16.3827
-3093.7500,142.2150,95.0476,119.6415,191.1611,181.0869,126.5906,65.9291,47.3318,-728.9641,-120.5855,35.5474,123.8879,66.9714,43.1706,-125.3663,-16.0826,51.4637,100.1774,-2.8697,8.4436
-3085.9375,-190.2565,-97.5796,-7.8945,32.5958,-57.2365,-5.8664,-207.7462,-154.4691,871.6803,-138.9056,18.2651,106.4992,49.3782,61.4591,-107.0772,-70.6287,175.1436,118.0857,14.3415,-9.3094
-3078.1250,-42.2807,-18.7469,297.0187,286.5184,321.9056,175.2549,96.0498,77.2177,-993.3400,-91.7370,103.4646,117.5543,207.2553,72.1987,-206.3586,-59.7271,-28.7744,125.4523,-14.0077,-72.6338
-3070.3125,-105.0698,-151.6668,157.1691,46.7013,182.2974,38.6399,-43.8946,-98.8355,190.8859,-232.3041,-73.0866,88.8480,31.3785,6.1884,-51.3953,-199.5824,259.5686,203.1017,97.8941,-101.7261
-3062.5000,-137.0818,-148.7904,89.0834,48.6899,261.4616,31.4798,-1.0644,-20.0829,160.0372,-153.0380,7.1720,57.9378,110.3051,48.9781,-46.6410,-193.6329,15.6859,135.5718,99.5716,-170.0359
